OOIBase32 Version 2.0.6.5 Data File
++++++++++++++++++++++++++++++++++++
Date: 04-23-2021, 12:06:36
User: Valued Ocean Optics Customer
Spectrometer Serial Number: USB2E5007
Spectrometer Channel: Master
Integration Time (msec): 45
Spectra Averaged: 20
Boxcar Smoothing: 0
Correct for Electrical Dark: Disabled
Time Normalized: Disabled
Dual-beam Reference: Disabled
Reference Channel: Master
Temperature: Not acquired
Spectrometer Type: S2000
ADC Type: USB2000
Number of Pixels in File: 2048
Graph Title: 
>>>>>Begin Spectral Data<<<<<
340.15	0.000
340.52	122.600
340.90	123.750
341.27	125.650
341.64	126.700
342.01	129.800
342.38	131.450
342.76	133.000
343.13	133.350
343.50	132.950
343.87	133.800
344.24	134.150
344.61	134.750
344.98	132.700
345.36	133.300
345.73	134.200
346.10	132.700
346.47	134.250
346.84	133.550
347.21	132.400
347.58	133.100
347.96	135.800
348.33	132.400
348.70	133.000
349.07	133.400
349.44	133.150
349.81	135.900
350.18	134.250
350.55	133.700
350.92	134.200
351.30	134.400
351.67	133.900
352.04	133.900
352.41	133.550
352.78	135.350
353.15	135.300
353.52	134.050
353.89	136.750
354.26	135.550
354.63	135.550
355.00	136.800
355.37	135.300
355.75	135.250
356.12	133.200
356.49	136.050
356.86	134.800
357.23	136.350
357.60	136.250
357.97	135.650
358.34	135.600
358.71	136.700
359.08	135.450
359.45	135.650
359.82	136.700
360.19	136.750
360.56	135.900
360.93	136.650
361.30	136.350
361.67	136.100
362.04	136.900
362.41	136.450
362.78	135.850
363.15	137.600
363.52	137.100
363.89	135.800
364.26	135.700
364.63	136.050
365.00	136.900
365.37	136.650
365.74	137.300
366.11	136.850
366.48	137.600
366.85	136.950
367.22	136.000
367.59	138.800
367.96	136.250
368.33	135.650
368.70	137.800
369.07	138.000
369.44	139.150
369.81	138.100
370.18	137.800
370.55	136.450
370.92	138.050
371.29	137.850
371.66	138.350
372.03	137.050
372.40	138.450
372.77	138.400
373.13	137.250
373.50	138.150
373.87	137.500
374.24	138.500
374.61	138.900
374.98	138.550
375.35	139.150
375.72	138.800
376.09	138.350
376.46	136.950
376.83	137.200
377.20	138.400
377.56	138.700
377.93	138.550
378.30	137.850
378.67	137.850
379.04	139.250
379.41	138.650
379.78	138.350
380.15	140.200
380.51	138.250
380.88	139.350
381.25	138.750
381.62	139.400
381.99	138.600
382.36	138.550
382.73	137.900
383.09	139.050
383.46	138.800
383.83	138.550
384.20	139.950
384.57	139.600
384.94	139.500
385.31	138.500
385.67	139.500
386.04	138.350
386.41	137.900
386.78	139.400
387.15	140.450
387.51	140.100
387.88	139.400
388.25	139.500
388.62	138.950
388.99	139.150
389.36	138.650
389.72	139.150
390.09	141.750
390.46	141.400
390.83	139.650
391.19	138.850
391.56	139.500
391.93	140.350
392.30	140.200
392.67	141.200
393.03	139.600
393.40	139.400
393.77	139.900
394.14	140.750
394.50	139.150
394.87	139.850
395.24	139.300
395.61	139.000
395.97	141.450
396.34	140.250
396.71	139.000
397.08	142.000
397.44	140.850
397.81	140.400
398.18	140.950
398.55	140.400
398.91	140.400
399.28	140.950
399.65	141.850
400.01	143.200
400.38	141.200
400.75	140.100
401.12	140.250
401.48	140.000
401.85	140.400
402.22	140.400
402.58	140.600
402.95	141.450
403.32	141.100
403.68	142.000
404.05	141.050
404.42	141.050
404.78	141.850
405.15	141.850
405.52	141.100
405.88	141.400
406.25	140.350
406.62	139.950
406.98	140.700
407.35	141.250
407.72	140.600
408.08	141.850
408.45	141.650
408.82	141.550
409.18	140.150
409.55	140.950
409.91	141.750
410.28	140.650
410.65	141.300
411.01	140.550
411.38	139.950
411.75	140.950
412.11	141.600
412.48	141.950
412.84	143.050
413.21	140.600
413.58	140.650
413.94	142.650
414.31	141.850
414.67	143.050
415.04	141.650
415.41	142.800
415.77	141.950
416.14	143.550
416.50	143.150
416.87	142.950
417.23	143.250
417.60	143.250
417.97	143.050
418.33	145.900
418.70	144.100
419.06	145.150
419.43	145.500
419.79	144.550
420.16	145.000
420.52	144.350
420.89	146.600
421.25	146.900
421.62	148.050
421.98	146.850
422.35	146.800
422.72	147.100
423.08	148.800
423.45	150.900
423.81	149.850
424.18	150.600
424.54	150.300
424.91	151.350
425.27	154.350
425.64	154.650
426.00	156.900
426.37	157.850
426.73	158.900
427.09	161.350
427.46	162.850
427.82	164.150
428.19	163.550
428.55	167.300
428.92	168.100
429.28	170.950
429.65	173.000
430.01	178.150
430.38	178.850
430.74	180.000
431.11	183.050
431.47	191.250
431.83	190.550
432.20	196.100
432.56	199.550
432.93	203.850
433.29	206.850
433.66	214.050
434.02	224.850
434.38	221.000
434.75	228.800
435.11	230.200
435.48	239.900
435.84	243.850
436.20	256.850
436.57	257.900
436.93	268.100
437.30	280.250
437.66	279.150
438.02	303.150
438.39	312.050
438.75	319.550
439.12	346.500
439.48	354.600
439.84	360.250
440.21	374.750
440.57	386.050
440.93	430.600
441.30	437.000
441.66	450.100
442.02	478.850
442.39	483.600
442.75	510.300
443.11	524.250
443.48	557.650
443.84	585.150
444.20	594.350
444.57	666.500
444.93	688.450
445.29	747.550
445.66	749.450
446.02	795.950
446.38	875.700
446.75	900.800
447.11	954.350
447.47	948.850
447.84	1009.500
448.20	1101.600
448.56	1174.350
448.92	1227.150
449.29	1253.450
449.65	1297.450
450.01	1365.750
450.37	1363.400
450.74	1450.650
451.10	1534.900
451.46	1598.650
451.83	1554.800
452.19	1622.000
452.55	1581.150
452.91	1714.600
453.28	1774.050
453.64	1828.550
454.00	1844.250
454.36	1698.700
454.72	1863.300
455.09	1808.200
455.45	1855.900
455.81	1822.850
456.17	1783.050
456.54	1785.450
456.90	1790.900
457.26	1684.950
457.62	1699.100
457.98	1699.150
458.35	1692.200
458.71	1580.850
459.07	1565.200
459.43	1470.850
459.79	1463.850
460.16	1375.000
460.52	1333.650
460.88	1324.700
461.24	1319.600
461.60	1281.800
461.96	1282.100
462.33	1210.900
462.69	1164.700
463.05	1119.900
463.41	1122.950
463.77	1087.500
464.13	1026.500
464.49	1049.550
464.86	1009.300
465.22	983.600
465.58	967.200
465.94	974.250
466.30	930.350
466.66	951.600
467.02	943.400
467.38	908.650
467.75	889.450
468.11	863.850
468.47	850.600
468.83	852.300
469.19	839.250
469.55	832.800
469.91	798.650
470.27	754.000
470.63	771.700
470.99	762.150
471.35	727.250
471.72	730.900
472.08	716.450
472.44	690.100
472.80	663.200
473.16	665.500
473.52	639.700
473.88	624.600
474.24	610.150
474.60	600.650
474.96	583.650
475.32	565.750
475.68	549.800
476.04	542.700
476.40	525.300
476.76	516.400
477.12	494.700
477.48	486.500
477.84	478.250
478.20	465.750
478.56	454.450
478.92	444.150
479.28	435.300
479.64	426.600
480.00	420.400
480.36	416.900
480.72	405.900
481.08	400.450
481.44	394.800
481.80	387.350
482.16	378.700
482.52	372.900
482.88	369.050
483.24	364.900
483.60	361.100
483.96	354.100
484.32	350.750
484.68	344.700
485.04	342.450
485.40	335.950
485.76	331.200
486.12	325.750
486.48	324.200
486.83	315.650
487.19	310.700
487.55	305.850
487.91	303.000
488.27	298.150
488.63	296.750
488.99	288.300
489.35	284.800
489.71	277.200
490.07	273.300
490.43	267.950
490.78	266.400
491.14	262.400
491.50	254.700
491.86	250.050
492.22	246.000
492.58	243.700
492.94	236.850
493.30	237.000
493.65	230.150
494.01	226.050
494.37	225.200
494.73	218.550
495.09	216.500
495.45	212.800
495.80	211.850
496.16	207.850
496.52	204.150
496.88	202.150
497.24	200.150
497.60	199.600
497.95	195.750
498.31	193.900
498.67	189.600
499.03	189.400
499.39	187.850
499.74	185.050
500.10	185.400
500.46	183.500
500.82	182.500
501.18	180.400
501.53	177.950
501.89	177.550
502.25	176.350
502.61	172.900
502.96	174.300
503.32	172.600
503.68	173.500
504.04	169.650
504.40	168.650
504.75	168.600
505.11	167.900
505.47	166.000
505.82	166.250
506.18	165.950
506.54	163.550
506.90	162.400
507.25	162.150
507.61	162.500
507.97	160.950
508.33	159.350
508.68	159.200
509.04	159.650
509.40	159.250
509.75	157.050
510.11	158.350
510.47	156.450
510.82	155.700
511.18	155.000
511.54	155.100
511.89	154.600
512.25	152.850
512.61	153.150
512.96	152.950
513.32	151.200
513.68	151.100
514.03	152.100
514.39	152.050
514.75	151.500
515.10	152.750
515.46	148.850
515.82	149.700
516.17	148.300
516.53	149.000
516.89	148.600
517.24	147.850
517.60	146.850
517.95	146.800
518.31	147.100
518.67	147.700
519.02	146.300
519.38	147.100
519.73	146.100
520.09	145.100
520.45	144.500
520.80	144.850
521.16	146.200
521.51	145.950
521.87	143.600
522.22	144.100
522.58	144.900
522.94	145.000
523.29	142.900
523.65	143.450
524.00	145.450
524.36	146.100
524.71	143.700
525.07	142.450
525.42	143.500
525.78	143.050
526.14	142.700
526.49	143.250
526.85	143.500
527.20	143.200
527.56	142.900
527.91	142.500
528.27	142.600
528.62	142.200
528.98	142.200
529.33	142.200
529.69	141.500
530.04	141.400
530.40	141.450
530.75	142.100
531.11	141.750
531.46	142.400
531.81	141.900
532.17	141.900
532.52	141.350
532.88	140.400
533.23	141.150
533.59	142.550
533.94	142.150
534.30	140.300
534.65	140.700
535.01	141.600
535.36	142.250
535.71	141.600
536.07	142.300
536.42	143.000
536.78	142.600
537.13	142.500
537.48	144.400
537.84	143.600
538.19	146.200
538.55	146.250
538.90	150.350
539.25	153.500
539.61	155.800
539.96	157.250
540.32	157.300
540.67	154.700
541.02	154.000
541.38	152.750
541.73	152.850
542.08	152.600
542.44	151.800
542.79	152.150
543.15	150.500
543.50	156.450
543.85	161.350
544.21	163.450
544.56	161.050
544.91	157.000
545.27	152.800
545.62	151.100
545.97	150.300
546.32	148.050
546.68	147.000
547.03	145.400
547.38	145.350
547.74	144.800
548.09	144.500
548.44	143.800
548.80	143.800
549.15	142.150
549.50	141.200
549.85	142.450
550.21	141.200
550.56	142.300
550.91	141.100
551.26	140.500
551.62	139.950
551.97	140.350
552.32	139.950
552.67	138.750
553.03	139.600
553.38	139.750
553.73	139.100
554.08	139.650
554.44	139.700
554.79	138.800
555.14	139.250
555.49	137.650
555.85	138.500
556.20	138.450
556.55	138.650
556.90	137.750
557.25	138.850
557.61	138.700
557.96	139.350
558.31	137.950
558.66	138.250
559.01	139.150
559.36	138.700
559.72	138.600
560.07	139.050
560.42	138.200
560.77	138.050
561.12	139.000
561.47	138.100
561.83	138.200
562.18	138.600
562.53	138.600
562.88	138.100
563.23	139.700
563.58	138.500
563.93	138.200
564.28	139.200
564.64	138.150
564.99	138.300
565.34	137.400
565.69	140.650
566.04	137.600
566.39	137.250
566.74	137.900
567.09	137.450
567.44	139.050
567.79	137.850
568.14	137.900
568.50	137.300
568.85	138.500
569.20	137.750
569.55	137.450
569.90	138.450
570.25	137.350
570.60	137.550
570.95	138.050
571.30	137.900
571.65	136.950
572.00	137.200
572.35	138.000
572.70	138.250
573.05	137.400
573.40	137.200
573.75	138.050
574.10	138.100
574.45	138.700
574.80	138.750
575.15	138.400
575.50	140.400
575.85	139.350
576.20	138.950
576.55	138.300
576.90	140.450
577.25	140.400
577.60	138.550
577.95	139.150
578.30	140.750
578.65	139.800
579.00	138.850
579.35	140.050
579.70	139.100
580.05	138.350
580.40	139.950
580.74	140.150
581.09	140.200
581.44	139.300
581.79	140.650
582.14	140.350
582.49	140.700
582.84	140.400
583.19	139.550
583.54	140.800
583.89	139.150
584.24	138.850
584.58	140.200
584.93	140.100
585.28	140.400
585.63	140.000
585.98	141.600
586.33	139.650
586.68	139.750
587.03	139.400
587.37	139.750
587.72	137.850
588.07	137.700
588.42	138.650
588.77	138.050
589.12	139.000
589.46	138.700
589.81	139.500
590.16	138.900
590.51	137.850
590.86	138.500
591.21	139.700
591.55	139.700
591.90	139.000
592.25	139.000
592.60	139.100
592.95	137.900
593.29	138.800
593.64	139.150
593.99	138.750
594.34	138.500
594.68	138.850
595.03	138.650
595.38	138.900
595.73	138.150
596.07	137.650
596.42	138.550
596.77	138.650
597.12	138.850
597.46	137.700
597.81	138.100
598.16	137.250
598.51	139.200
598.85	138.400
599.20	138.250
599.55	137.150
599.90	137.000
600.24	136.750
600.59	136.500
600.94	136.900
601.28	138.550
601.63	137.600
601.98	137.000
602.32	137.150
602.67	138.100
603.02	138.700
603.36	137.600
603.71	138.250
604.06	139.050
604.40	137.250
604.75	138.550
605.10	138.000
605.44	138.450
605.79	137.650
606.14	137.650
606.48	139.000
606.83	138.150
607.17	139.750
607.52	139.800
607.87	141.200
608.21	143.650
608.56	145.300
608.90	155.000
609.25	159.250
609.60	160.250
609.94	156.700
610.29	155.300
610.63	151.050
610.98	148.700
611.33	147.850
611.67	145.750
612.02	145.050
612.36	143.500
612.71	144.750
613.05	143.200
613.40	143.400
613.74	141.500
614.09	140.400
614.44	140.500
614.78	138.700
615.13	138.850
615.47	138.500
615.82	139.450
616.16	137.750
616.51	138.750
616.85	138.500
617.20	139.100
617.54	139.600
617.89	139.650
618.23	139.500
618.58	139.300
618.92	138.000
619.27	138.550
619.61	139.100
619.96	138.350
620.30	139.250
620.64	139.650
620.99	139.950
621.33	139.000
621.68	139.300
622.02	139.100
622.37	139.150
622.71	138.150
623.06	138.950
623.40	138.550
623.74	137.950
624.09	139.650
624.43	138.550
624.78	136.800
625.12	137.850
625.46	138.300
625.81	138.850
626.15	139.550
626.50	138.450
626.84	137.400
627.18	140.300
627.53	138.550
627.87	137.700
628.21	138.200
628.56	138.250
628.90	138.550
629.25	139.400
629.59	138.900
629.93	139.100
630.28	139.250
630.62	138.200
630.96	138.350
631.31	137.300
631.65	137.300
631.99	136.550
632.34	136.550
632.68	136.650
633.02	136.950
633.36	138.000
633.71	136.600
634.05	137.300
634.39	135.700
634.74	135.750
635.08	135.750
635.42	136.350
635.76	136.700
636.11	135.500
636.45	139.400
636.79	136.250
637.14	135.650
637.48	135.850
637.82	136.150
638.16	136.450
638.50	136.450
638.85	135.950
639.19	137.400
639.53	138.550
639.87	136.900
640.22	136.200
640.56	136.550
640.90	135.500
641.24	136.450
641.58	135.150
641.93	135.050
642.27	136.800
642.61	137.750
642.95	137.650
643.29	135.400
643.64	135.400
643.98	136.250
644.32	135.500
644.66	136.200
645.00	136.650
645.34	136.600
645.68	136.400
646.03	137.650
646.37	136.250
646.71	136.050
647.05	137.450
647.39	136.050
647.73	136.900
648.07	136.700
648.42	136.950
648.76	137.000
649.10	136.850
649.44	137.850
649.78	136.900
650.12	138.150
650.46	136.700
650.80	137.350
651.14	138.350
651.48	137.900
651.82	136.650
652.16	137.050
652.51	136.800
652.85	135.900
653.19	136.400
653.53	136.800
653.87	135.800
654.21	137.350
654.55	137.150
654.89	137.250
655.23	137.300
655.57	137.200
655.91	137.400
656.25	136.500
656.59	135.700
656.93	136.000
657.27	135.550
657.61	137.800
657.95	136.450
658.29	135.950
658.63	136.250
658.97	138.150
659.31	137.400
659.65	135.650
659.99	137.450
660.33	137.800
660.67	136.750
661.01	136.950
661.35	135.550
661.68	136.700
662.02	135.800
662.36	135.650
662.70	136.050
663.04	136.100
663.38	137.050
663.72	136.500
664.06	137.050
664.40	136.050
664.74	136.600
665.08	137.300
665.42	136.650
665.75	135.400
666.09	135.650
666.43	138.550
666.77	136.600
667.11	135.000
667.45	136.100
667.79	136.450
668.12	136.450
668.46	135.650
668.80	135.800
669.14	136.500
669.48	136.750
669.82	136.550
670.16	136.550
670.49	136.550
670.83	135.250
671.17	135.400
671.51	136.950
671.85	136.150
672.18	136.350
672.52	135.450
672.86	136.450
673.20	136.750
673.54	137.150
673.87	136.300
674.21	137.950
674.55	135.750
674.89	136.600
675.22	136.750
675.56	137.050
675.90	137.700
676.24	137.000
676.57	135.350
676.91	135.900
677.25	135.050
677.59	134.800
677.92	135.300
678.26	135.400
678.60	135.900
678.93	135.400
679.27	137.050
679.61	135.250
679.95	135.750
680.28	136.250
680.62	135.900
680.96	136.100
681.29	135.600
681.63	136.550
681.97	135.650
682.30	136.300
682.64	135.950
682.98	135.500
683.31	135.800
683.65	136.450
683.99	134.550
684.32	137.000
684.66	135.600
685.00	136.350
685.33	136.550
685.67	136.700
686.00	136.000
686.34	135.200
686.68	136.850
687.01	137.200
687.35	135.600
687.68	137.050
688.02	136.750
688.36	136.050
688.69	135.950
689.03	135.600
689.36	136.500
689.70	135.250
690.03	136.150
690.37	135.850
690.71	136.400
691.04	135.950
691.38	135.950
691.71	135.700
692.05	135.600
692.38	135.800
692.72	135.200
693.05	135.750
693.39	136.600
693.72	135.700
694.06	135.300
694.39	135.400
694.73	136.300
695.06	135.050
695.40	135.700
695.73	135.950
696.07	137.150
696.40	136.900
696.74	137.850
697.07	136.950
697.41	134.850
697.74	136.900
698.08	135.100
698.41	135.650
698.74	136.150
699.08	135.550
699.41	136.400
699.75	136.150
700.08	135.100
700.42	134.200
700.75	135.000
701.08	135.750
701.42	135.600
701.75	136.700
702.09	137.800
702.42	138.050
702.75	136.050
703.09	136.150
703.42	136.450
703.75	135.350
704.09	137.000
704.42	136.850
704.76	136.750
705.09	136.350
705.42	135.500
705.76	136.800
706.09	135.100
706.42	138.150
706.76	137.100
707.09	135.400
707.42	136.300
707.76	136.750
708.09	136.050
708.42	136.500
708.75	137.250
709.09	135.850
709.42	136.400
709.75	136.600
710.09	137.200
710.42	135.200
710.75	135.800
711.08	136.800
711.42	137.000
711.75	136.400
712.08	136.100
712.41	135.350
712.75	136.400
713.08	135.900
713.41	136.200
713.74	136.700
714.08	136.150
714.41	135.750
714.74	135.850
715.07	137.300
715.41	135.600
715.74	137.000
716.07	135.800
716.40	135.400
716.73	135.700
717.06	135.300
717.40	134.950
717.73	134.750
718.06	136.450
718.39	135.900
718.72	136.200
719.05	135.650
719.39	135.800
719.72	136.000
720.05	137.350
720.38	136.500
720.71	135.900
721.04	135.950
721.37	135.800
721.71	134.650
722.04	135.200
722.37	136.500
722.70	136.500
723.03	136.300
723.36	134.150
723.69	135.950
724.02	135.550
724.35	135.050
724.68	136.950
725.01	135.950
725.35	136.150
725.68	136.050
726.01	136.450
726.34	136.750
726.67	135.200
727.00	135.450
727.33	135.300
727.66	135.300
727.99	135.350
728.32	135.700
728.65	136.000
728.98	136.100
729.31	136.550
729.64	136.500
729.97	134.300
730.30	134.600
730.63	136.650
730.96	135.550
731.29	135.400
731.62	135.250
731.95	136.450
732.28	137.250
732.61	136.350
732.94	136.300
733.27	136.250
733.60	136.300
733.93	136.000
734.25	135.650
734.58	135.500
734.91	135.500
735.24	135.700
735.57	135.750
735.90	135.250
736.23	136.300
736.56	135.850
736.89	135.550
737.22	136.000
737.55	136.250
737.87	138.600
738.20	135.250
738.53	135.450
738.86	135.650
739.19	135.500
739.52	136.350
739.85	135.450
740.17	135.650
740.50	135.450
740.83	135.450
741.16	135.000
741.49	136.750
741.82	135.300
742.14	135.700
742.47	135.650
742.80	136.100
743.13	135.450
743.46	136.300
743.78	136.150
744.11	136.150
744.44	136.150
744.77	135.700
745.10	135.600
745.42	135.950
745.75	136.050
746.08	135.950
746.41	135.950
746.73	134.900
747.06	137.200
747.39	135.750
747.72	134.800
748.04	135.050
748.37	135.950
748.70	135.500
749.02	136.250
749.35	136.950
749.68	135.550
750.01	136.250
750.33	138.250
750.66	136.250
750.99	136.150
751.31	134.900
751.64	134.750
751.97	135.600
752.29	136.850
752.62	135.250
752.95	134.500
753.27	135.250
753.60	136.850
753.93	135.900
754.25	134.900
754.58	135.450
754.91	135.800
755.23	137.150
755.56	139.300
755.88	137.850
756.21	135.700
756.54	135.000
756.86	134.900
757.19	135.850
757.51	135.000
757.84	136.500
758.17	135.950
758.49	135.550
758.82	135.550
759.14	135.150
759.47	134.600
759.79	136.150
760.12	135.600
760.44	135.650
760.77	135.450
761.09	135.100
761.42	135.800
761.75	136.700
762.07	135.450
762.40	134.900
762.72	135.700
763.05	135.400
763.37	135.450
763.70	135.000
764.02	137.050
764.35	135.050
764.67	134.400
764.99	137.550
765.32	134.750
765.64	135.800
765.97	134.050
766.29	135.150
766.62	134.850
766.94	137.050
767.27	136.550
767.59	136.100
767.91	136.300
768.24	136.950
768.56	136.200
768.89	136.150
769.21	134.850
769.54	135.550
769.86	136.750
770.18	136.000
770.51	135.600
770.83	135.250
771.15	135.750
771.48	136.100
771.80	136.650
772.13	135.500
772.45	135.200
772.77	135.400
773.10	135.650
773.42	136.450
773.74	135.050
774.07	135.250
774.39	135.400
774.71	135.850
775.04	135.800
775.36	135.300
775.68	134.200
776.01	134.850
776.33	134.900
776.65	134.500
776.97	134.500
777.30	137.150
777.62	135.900
777.94	135.000
778.26	136.700
778.59	135.450
778.91	134.300
779.23	136.350
779.55	136.650
779.88	136.850
780.20	135.650
780.52	135.100
780.84	135.000
781.17	135.800
781.49	134.450
781.81	136.000
782.13	135.550
782.45	135.800
782.78	135.550
783.10	136.650
783.42	135.350
783.74	134.700
784.06	134.950
784.39	134.150
784.71	136.200
785.03	135.650
785.35	136.650
785.67	135.300
785.99	135.100
786.31	134.900
786.64	135.800
786.96	134.950
787.28	136.050
787.60	134.800
787.92	136.000
788.24	136.700
788.56	134.450
788.88	136.150
789.20	136.750
789.53	136.600
789.85	135.400
790.17	134.350
790.49	134.100
790.81	135.100
791.13	136.050
791.45	135.850
791.77	135.800
792.09	135.350
792.41	134.800
792.73	135.100
793.05	134.300
793.37	135.650
793.69	137.050
794.01	134.750
794.33	136.100
794.65	136.050
794.97	134.650
795.29	135.900
795.61	135.700
795.93	135.450
796.25	135.800
796.57	135.750
796.89	135.150
797.21	138.100
797.53	135.700
797.85	134.750
798.17	135.350
798.49	134.600
798.81	135.500
799.13	136.800
799.45	137.450
799.77	135.750
800.08	136.000
800.40	134.750
800.72	135.600
801.04	136.350
801.36	135.750
801.68	134.200
802.00	134.200
802.32	135.000
802.64	136.000
802.95	135.300
803.27	136.700
803.59	136.550
803.91	136.200
804.23	135.500
804.55	134.250
804.87	135.000
805.18	136.650
805.50	135.600
805.82	135.200
806.14	135.750
806.46	135.100
806.77	136.300
807.09	137.000
807.41	134.400
807.73	134.200
808.05	136.200
808.36	136.850
808.68	135.450
809.00	136.650
809.32	136.550
809.63	135.700
809.95	136.300
810.27	135.150
810.59	134.500
810.90	135.700
811.22	135.600
811.54	134.900
811.86	136.300
812.17	137.050
812.49	135.150
812.81	134.550
813.12	135.600
813.44	135.900
813.76	135.450
814.08	136.100
814.39	136.400
814.71	135.800
815.03	135.450
815.34	133.900
815.66	134.750
815.98	135.050
816.29	135.000
816.61	136.300
816.92	135.200
817.24	133.850
817.56	135.950
817.87	135.450
818.19	135.250
818.51	135.550
818.82	135.700
819.14	135.350
819.45	135.250
819.77	134.600
820.09	136.150
820.40	136.250
820.72	134.850
821.03	134.250
821.35	136.200
821.66	135.750
821.98	137.250
822.29	136.200
822.61	136.800
822.93	135.400
823.24	135.800
823.56	136.550
823.87	135.700
824.19	135.050
824.50	134.450
824.82	136.300
825.13	135.700
825.45	134.150
825.76	136.050
826.08	135.200
826.39	135.700
826.71	135.250
827.02	135.500
827.33	135.400
827.65	135.150
827.96	134.650
828.28	135.600
828.59	136.850
828.91	135.000
829.22	134.450
829.54	135.700
829.85	136.000
830.16	134.850
830.48	135.500
830.79	136.800
831.11	134.650
831.42	134.800
831.73	134.950
832.05	135.100
832.36	135.650
832.67	137.350
832.99	136.450
833.30	135.700
833.62	134.850
833.93	134.750
834.24	135.450
834.56	135.200
834.87	135.450
835.18	137.050
835.50	136.200
835.81	134.000
836.12	134.150
836.43	135.050
836.75	134.800
837.06	134.300
837.37	135.700
837.69	134.950
838.00	135.800
838.31	134.750
838.62	134.650
838.94	134.950
839.25	135.700
839.56	134.250
839.87	136.550
840.19	136.300
840.50	136.800
840.81	135.400
841.12	135.150
841.44	135.400
841.75	135.150
842.06	135.050
842.37	135.000
842.68	134.900
843.00	134.950
843.31	134.700
843.62	135.800
843.93	136.000
844.24	136.400
844.55	135.450
844.87	135.800
845.18	135.450
845.49	133.850
845.80	136.050
846.11	134.900
846.42	136.500
846.73	135.600
847.05	134.050
847.36	134.400
847.67	135.150
847.98	135.150
848.29	134.550
848.60	135.500
848.91	134.400
849.22	134.050
849.53	134.900
849.84	134.750
850.15	134.900
850.46	135.950
850.78	135.000
851.09	134.100
851.40	135.200
851.71	136.650
852.02	134.700
852.33	135.500
852.64	137.200
852.95	135.350
853.26	134.150
853.57	135.450
853.88	136.650
854.19	135.250
854.50	135.650
854.81	135.950
855.12	134.750
855.43	134.550
855.74	134.300
856.05	134.950
856.35	134.850
856.66	133.950
856.97	134.550
857.28	134.100
857.59	135.800
857.90	134.650
858.21	135.150
858.52	135.050
858.83	134.000
859.14	133.700
859.45	134.500
859.76	134.550
860.06	135.700
860.37	135.450
860.68	135.200
860.99	135.200
861.30	134.900
861.61	135.350
861.92	136.400
862.23	136.750
862.53	135.350
862.84	135.850
863.15	135.150
863.46	135.200
863.77	134.600
864.08	135.850
864.38	136.150
864.69	135.800
865.00	135.050
865.31	135.100
865.61	136.700
865.92	137.000
866.23	135.450
866.54	134.800
866.85	134.800
867.15	133.850
867.46	135.000
867.77	136.050
868.08	136.250
868.38	135.750
868.69	135.150
869.00	135.200
869.30	135.250
869.61	135.450
869.92	137.600
870.23	135.650
870.53	135.450
870.84	135.100
871.15	134.350
871.45	135.700
871.76	135.500
872.07	135.350
872.37	135.950
872.68	134.850
872.99	134.350
873.29	135.300
873.60	135.950
873.91	135.350
874.21	134.550
874.52	135.300
874.82	135.900
875.13	136.300
875.44	135.700
875.74	135.850
876.05	137.350
876.35	136.100
876.66	135.550
876.97	135.000
877.27	135.200
877.58	135.300
877.88	135.800
878.19	135.500
878.49	135.050
878.80	135.600
879.10	136.850
879.41	135.900
879.72	135.800
880.02	135.250
880.33	135.850
880.63	135.050
880.94	135.650
881.24	135.200
881.55	135.500
881.85	134.700
882.16	136.100
882.46	135.950
882.76	136.550
883.07	135.850
883.37	137.550
883.68	135.750
883.98	136.450
884.29	135.800
884.59	134.850
884.90	136.550
885.20	134.900
885.50	135.400
885.81	135.000
886.11	136.300
886.42	136.050
886.72	134.850
887.02	135.850
887.33	135.550
887.63	135.500
887.94	135.950
888.24	136.500
888.54	134.750
888.85	133.900
889.15	135.700
889.45	136.050
889.76	136.450
890.06	135.350
890.36	137.150
890.67	138.100
890.97	134.950
891.27	136.050
891.58	136.050
891.88	135.900
892.18	135.450
892.48	135.300
892.79	135.300
893.09	134.950
893.39	133.950
893.70	136.600
894.00	135.100
894.30	135.750
894.60	135.800
894.91	135.950
895.21	135.550
895.51	135.750
895.81	135.000
896.11	134.900
896.42	134.800
896.72	135.500
897.02	136.500
897.32	134.900
897.62	134.450
897.93	134.450
898.23	135.300
898.53	136.000
898.83	136.950
899.13	136.050
899.43	135.050
899.74	135.100
900.04	135.800
900.34	134.550
900.64	134.800
900.94	135.300
901.24	134.650
901.54	136.350
901.84	136.100
902.15	135.400
902.45	134.500
902.75	134.050
903.05	135.900
903.35	134.850
903.65	135.600
903.95	134.600
904.25	134.650
904.55	135.650
904.85	135.150
905.15	134.800
905.45	137.150
905.75	134.800
906.05	134.850
906.35	135.450
906.65	136.450
906.95	136.000
907.25	135.650
907.55	134.800
907.85	135.250
908.15	134.800
908.45	135.650
908.75	134.800
909.05	134.750
909.35	134.800
909.65	135.000
909.95	136.650
910.25	134.900
910.55	135.050
910.85	137.550
911.15	136.200
911.45	136.250
911.75	135.000
912.05	135.350
912.34	137.300
912.64	136.550
912.94	134.650
913.24	134.400
913.54	134.850
913.84	137.550
914.14	136.000
914.44	134.900
914.73	136.300
915.03	135.500
915.33	135.300
915.63	134.800
915.93	135.650
916.23	134.700
916.52	134.750
916.82	136.700
917.12	135.350
917.42	135.750
917.72	135.900
918.01	135.900
918.31	135.850
918.61	135.950
918.91	136.650
919.21	136.250
919.50	135.400
919.80	133.400
920.10	134.850
920.40	135.650
920.69	135.400
920.99	134.100
921.29	133.650
921.58	133.300
921.88	134.650
922.18	134.800
922.48	136.300
922.77	135.000
923.07	135.450
923.37	137.100
923.66	134.650
923.96	134.350
924.26	135.100
924.55	135.200
924.85	135.750
925.15	135.050
925.44	134.300
925.74	134.650
926.04	136.250
926.33	135.600
926.63	135.950
926.92	135.300
927.22	136.800
927.52	134.950
927.81	134.850
928.11	134.800
928.40	135.250
928.70	134.400
929.00	135.200
929.29	135.100
929.59	135.750
929.88	135.250
930.18	134.350
930.47	134.250
930.77	134.350
931.06	135.650
931.36	134.600
931.65	134.350
931.95	134.850
932.24	134.750
932.54	135.000
932.83	135.200
933.13	135.300
933.42	134.150
933.72	134.100
934.01	135.600
934.31	134.950
934.60	136.350
934.90	134.400
935.19	135.450
935.49	135.100
935.78	135.850
936.07	136.350
936.37	135.500
936.66	134.850
936.96	136.450
937.25	135.250
937.54	135.150
937.84	134.050
938.13	135.050
938.43	135.000
938.72	134.700
939.01	134.700
939.31	135.200
939.60	134.600
939.89	133.600
940.19	134.900
940.48	135.900
940.77	135.750
941.07	135.500
941.36	136.200
941.65	134.650
941.95	135.850
942.24	134.500
942.53	135.450
942.82	134.100
943.12	135.650
943.41	134.650
943.70	134.750
944.00	134.700
944.29	135.100
944.58	135.900
944.87	134.600
945.17	134.700
945.46	135.300
945.75	135.250
946.04	135.550
946.33	135.250
946.63	135.100
946.92	134.000
947.21	133.750
947.50	135.150
947.79	134.400
948.09	133.900
948.38	134.900
948.67	135.000
948.96	135.250
949.25	134.850
949.54	134.100
949.83	135.300
950.13	134.500
950.42	135.200
950.71	135.250
951.00	133.750
951.29	134.150
951.58	134.450
951.87	136.000
952.16	135.650
952.45	135.050
952.75	135.250
953.04	136.050
953.33	136.350
953.62	135.700
953.91	136.100
954.20	136.350
954.49	135.000
954.78	134.350
955.07	134.350
955.36	135.350
955.65	134.900
955.94	134.500
956.23	135.350
956.52	135.200
956.81	136.100
957.10	134.550
957.39	135.050
957.68	134.650
957.97	134.700
958.26	134.550
958.55	135.350
958.84	135.450
959.13	136.200
959.42	137.200
959.71	135.300
960.00	135.750
960.28	134.850
960.57	135.050
960.86	135.050
961.15	135.000
961.44	136.150
961.73	134.950
962.02	134.950
962.31	134.900
962.60	136.200
962.88	135.400
963.17	135.900
963.46	135.250
963.75	134.850
964.04	134.700
964.33	136.000
964.61	135.400
964.90	134.150
965.19	135.650
965.48	134.150
965.77	135.650
966.05	134.300
966.34	134.000
966.63	135.150
966.92	135.950
967.21	135.950
967.49	135.350
967.78	136.200
968.07	134.350
968.36	135.800
968.64	136.400
968.93	135.700
969.22	134.300
969.51	134.600
969.79	135.100
970.08	135.050
970.37	135.600
970.65	135.350
970.94	134.250
971.23	134.450
971.51	134.750
971.80	135.500
972.09	134.400
972.37	135.450
972.66	136.350
972.95	136.200
973.23	136.550
973.52	134.350
973.81	134.250
974.09	135.250
974.38	134.900
974.66	134.750
974.95	135.900
975.24	134.150
975.52	135.300
975.81	134.700
976.09	135.450
976.38	134.800
976.66	135.550
976.95	134.500
977.24	133.900
977.52	135.400
977.81	135.700
978.09	135.050
978.38	135.900
978.66	134.700
978.95	134.950
979.23	136.200
979.52	134.550
979.80	135.300
980.09	134.350
980.37	136.800
980.66	135.400
980.94	136.300
981.23	134.900
981.51	133.550
981.80	134.600
982.08	135.300
982.36	137.850
982.65	135.750
982.93	135.800
983.22	135.200
983.50	135.600
983.78	135.200
984.07	134.300
984.35	135.150
984.64	134.200
984.92	134.800
985.20	135.350
985.49	135.700
985.77	136.550
986.05	136.300
986.34	135.250
986.62	133.700
986.91	135.600
987.19	136.050
987.47	135.700
987.75	135.250
988.04	133.850
988.32	136.100
988.60	133.900
988.89	134.450
989.17	134.850
989.45	135.450
989.74	134.950
990.02	134.900
990.30	135.050
990.58	134.250
990.87	135.600
991.15	136.100
991.43	133.850
991.71	134.650
991.99	135.400
992.28	135.100
992.56	137.400
992.84	135.700
993.12	134.300
993.40	135.100
993.69	136.100
993.97	135.900
994.25	136.300
994.53	134.850
994.81	135.750
995.09	135.450
995.38	133.800
995.66	135.650
995.94	136.300
996.22	135.450
996.50	135.400
996.78	134.950
997.06	134.200
997.34	135.100
997.63	134.500
997.91	135.250
998.19	136.400
998.47	135.600
998.75	134.500
999.03	134.300
999.31	134.300
999.59	136.500
999.87	134.950
1000.15	136.400
1000.43	135.150
1000.71	135.400
1000.99	136.200
1001.27	135.750
1001.55	135.000
1001.83	135.900
1002.11	135.050
1002.39	134.550
1002.67	134.250
1002.95	136.300
1003.23	135.250
1003.51	135.950
1003.79	136.050
1004.07	135.900
1004.35	136.100
1004.63	133.950
1004.91	135.000
1005.19	134.200
1005.46	134.600
1005.74	134.600
1006.02	135.050
1006.30	134.650
1006.58	135.000
1006.86	136.700
1007.14	135.700
1007.42	135.000
1007.70	135.000
1007.97	136.200
1008.25	135.400
1008.53	134.250
1008.81	133.600
1009.09	134.450
1009.37	134.400
1009.64	135.250
1009.92	134.450
1010.20	134.600
1010.48	134.550
1010.76	135.150
1011.03	134.950
1011.31	136.050
1011.59	135.450
1011.87	134.900
1012.14	135.750
1012.42	134.900
1012.70	135.000
1012.98	134.850
1013.25	133.900
1013.53	134.800
1013.81	135.200
1014.08	135.600
1014.36	133.700
1014.64	135.450
1014.92	134.900
1015.19	133.800
1015.47	133.800
1015.75	134.800
1016.02	135.400
1016.30	134.450
1016.58	137.000
1016.85	134.900
>>>>>End Spectral Data<<<<<
