OOIBase32 Version 2.0.6.5 Data File
++++++++++++++++++++++++++++++++++++
Date: 04-23-2021, 12:04:52
User: Valued Ocean Optics Customer
Spectrometer Serial Number: USB2E5007
Spectrometer Channel: Master
Integration Time (msec): 45
Spectra Averaged: 20
Boxcar Smoothing: 0
Correct for Electrical Dark: Disabled
Time Normalized: Disabled
Dual-beam Reference: Disabled
Reference Channel: Master
Temperature: Not acquired
Spectrometer Type: S2000
ADC Type: USB2000
Number of Pixels in File: 2048
Graph Title: 
>>>>>Begin Spectral Data<<<<<
340.15	0.000
340.52	125.350
340.90	126.200
341.27	128.750
341.64	129.000
342.01	133.250
342.38	133.700
342.76	134.500
343.13	135.900
343.50	136.100
343.87	135.000
344.24	136.450
344.61	136.200
344.98	135.800
345.36	136.450
345.73	137.450
346.10	135.150
346.47	137.500
346.84	136.300
347.21	135.350
347.58	135.150
347.96	138.350
348.33	135.050
348.70	135.750
349.07	136.300
349.44	137.550
349.81	139.500
350.18	138.050
350.55	137.550
350.92	136.700
351.30	137.350
351.67	137.250
352.04	137.750
352.41	137.500
352.78	139.550
353.15	138.650
353.52	138.250
353.89	139.000
354.26	138.600
354.63	137.700
355.00	139.800
355.37	138.600
355.75	139.200
356.12	138.850
356.49	139.450
356.86	140.900
357.23	138.600
357.60	139.800
357.97	139.450
358.34	138.900
358.71	139.150
359.08	140.050
359.45	138.350
359.82	139.900
360.19	140.100
360.56	139.450
360.93	140.550
361.30	139.550
361.67	139.600
362.04	141.550
362.41	141.100
362.78	139.900
363.15	141.950
363.52	140.250
363.89	139.250
364.26	139.250
364.63	140.400
365.00	139.000
365.37	139.550
365.74	140.000
366.11	141.000
366.48	142.400
366.85	140.750
367.22	140.150
367.59	142.100
367.96	140.950
368.33	141.500
368.70	141.100
369.07	141.600
369.44	141.900
369.81	140.750
370.18	141.850
370.55	140.850
370.92	140.550
371.29	142.050
371.66	141.000
372.03	140.850
372.40	141.300
372.77	140.900
373.13	141.200
373.50	141.950
373.87	142.400
374.24	142.150
374.61	141.650
374.98	141.650
375.35	141.750
375.72	143.250
376.09	142.300
376.46	142.100
376.83	141.350
377.20	142.100
377.56	141.950
377.93	140.650
378.30	143.350
378.67	141.350
379.04	142.950
379.41	141.550
379.78	142.600
380.15	145.300
380.51	143.000
380.88	141.200
381.25	141.550
381.62	143.350
381.99	142.000
382.36	142.550
382.73	142.000
383.09	144.200
383.46	143.650
383.83	143.050
384.20	143.650
384.57	143.450
384.94	143.700
385.31	141.600
385.67	144.600
386.04	142.050
386.41	143.650
386.78	142.900
387.15	144.700
387.51	144.600
387.88	143.500
388.25	144.250
388.62	143.300
388.99	143.400
389.36	143.600
389.72	144.700
390.09	146.550
390.46	144.800
390.83	142.950
391.19	143.450
391.56	144.900
391.93	143.250
392.30	143.800
392.67	144.700
393.03	144.000
393.40	144.150
393.77	144.300
394.14	143.900
394.50	144.400
394.87	145.100
395.24	144.250
395.61	145.550
395.97	145.100
396.34	144.200
396.71	144.150
397.08	146.300
397.44	144.350
397.81	145.050
398.18	145.400
398.55	145.100
398.91	145.350
399.28	144.950
399.65	146.100
400.01	146.400
400.38	145.550
400.75	144.500
401.12	144.650
401.48	144.600
401.85	146.250
402.22	145.700
402.58	145.550
402.95	146.850
403.32	146.450
403.68	145.700
404.05	144.950
404.42	145.300
404.78	147.300
405.15	147.650
405.52	146.300
405.88	146.600
406.25	146.450
406.62	144.950
406.98	145.550
407.35	145.400
407.72	145.200
408.08	146.800
408.45	147.100
408.82	146.050
409.18	146.050
409.55	146.400
409.91	147.850
410.28	146.800
410.65	146.650
411.01	146.600
411.38	146.850
411.75	147.450
412.11	148.300
412.48	147.750
412.84	149.200
413.21	148.200
413.58	148.800
413.94	149.700
414.31	149.450
414.67	149.750
415.04	148.250
415.41	150.750
415.77	150.650
416.14	150.950
416.50	151.700
416.87	151.800
417.23	152.850
417.60	152.800
417.97	151.550
418.33	153.550
418.70	154.000
419.06	156.550
419.43	155.600
419.79	156.450
420.16	156.600
420.52	158.900
420.89	160.100
421.25	160.000
421.62	160.400
421.98	162.450
422.35	162.500
422.72	164.700
423.08	167.750
423.45	169.650
423.81	170.000
424.18	172.750
424.54	171.600
424.91	175.950
425.27	179.200
425.64	181.600
426.00	186.800
426.37	189.100
426.73	189.450
427.09	195.350
427.46	198.700
427.82	203.150
428.19	204.900
428.55	210.650
428.92	214.500
429.28	222.000
429.65	227.950
430.01	240.850
430.38	239.600
430.74	243.950
431.11	246.250
431.47	267.550
431.83	269.150
432.20	281.800
432.56	289.050
432.93	303.750
433.29	307.950
433.66	318.150
434.02	341.850
434.38	336.850
434.75	363.800
435.11	365.600
435.48	389.950
435.84	393.300
436.20	426.750
436.57	429.600
436.93	455.150
437.30	484.800
437.66	483.250
438.02	535.450
438.39	558.200
438.75	574.300
439.12	630.950
439.48	648.200
439.84	667.850
440.21	701.150
440.57	725.100
440.93	834.800
441.30	843.600
441.66	868.100
442.02	935.100
442.39	944.200
442.75	1003.450
443.11	1033.100
443.48	1101.250
443.84	1159.450
444.20	1186.950
444.57	1341.100
444.93	1394.900
445.29	1523.800
445.66	1516.600
446.02	1610.800
446.38	1782.200
446.75	1824.750
447.11	1934.850
447.47	1921.600
447.84	2032.100
448.20	2212.250
448.56	2360.600
448.92	2459.550
449.29	2503.550
449.65	2584.750
450.01	2711.850
450.37	2700.650
450.74	2867.850
451.10	3013.250
451.46	3140.000
451.83	3040.300
452.19	3164.000
452.55	3080.600
452.91	3314.750
453.28	3409.900
453.64	3526.800
454.00	3539.600
454.36	3279.300
454.72	3572.750
455.09	3475.900
455.45	3553.750
455.81	3505.150
456.17	3440.750
456.54	3443.400
456.90	3450.050
457.26	3251.650
457.62	3288.700
457.98	3292.350
458.35	3280.300
458.71	3088.400
459.07	3067.450
459.43	2904.100
459.79	2894.250
460.16	2704.400
460.52	2654.800
460.88	2632.050
461.24	2625.450
461.60	2555.250
461.96	2571.400
462.33	2423.450
462.69	2332.750
463.05	2240.050
463.41	2247.000
463.77	2174.950
464.13	2052.600
464.49	2101.500
464.86	2019.900
465.22	1961.800
465.58	1928.500
465.94	1946.150
466.30	1854.650
466.66	1885.400
467.02	1866.450
467.38	1795.500
467.75	1756.550
468.11	1701.500
468.47	1666.150
468.83	1664.950
469.19	1638.950
469.55	1628.450
469.91	1561.250
470.27	1461.650
470.63	1496.850
470.99	1478.200
471.35	1404.850
471.72	1404.500
472.08	1380.150
472.44	1326.000
472.80	1271.350
473.16	1278.600
473.52	1213.000
473.88	1182.350
474.24	1154.950
474.60	1138.050
474.96	1105.150
475.32	1065.700
475.68	1031.500
476.04	1013.750
476.40	979.850
476.76	960.800
477.12	921.150
477.48	898.650
477.84	885.150
478.20	856.550
478.56	836.050
478.92	813.700
479.28	788.100
479.64	770.600
480.00	762.650
480.36	751.100
480.72	722.500
481.08	714.600
481.44	697.500
481.80	688.200
482.16	668.800
482.52	654.600
482.88	638.000
483.24	637.050
483.60	628.350
483.96	611.950
484.32	600.600
484.68	585.900
485.04	578.850
485.40	568.800
485.76	556.350
486.12	547.750
486.48	536.500
486.83	526.700
487.19	514.650
487.55	506.300
487.91	497.000
488.27	483.400
488.63	475.600
488.99	464.250
489.35	455.150
489.71	442.900
490.07	434.150
490.43	422.750
490.78	415.350
491.14	404.900
491.50	395.300
491.86	383.800
492.22	373.650
492.58	366.100
492.94	358.900
493.30	351.550
493.65	338.450
494.01	332.350
494.37	326.400
494.73	318.700
495.09	311.800
495.45	304.600
495.80	300.000
496.16	291.900
496.52	287.300
496.88	281.350
497.24	276.150
497.60	272.800
497.95	265.950
498.31	261.650
498.67	258.300
499.03	254.100
499.39	250.550
499.74	245.800
500.10	241.100
500.46	238.400
500.82	235.100
501.18	232.250
501.53	228.350
501.89	225.650
502.25	224.250
502.61	219.650
502.96	219.100
503.32	215.300
503.68	214.950
504.04	212.350
504.40	209.000
504.75	207.750
505.11	204.050
505.47	205.000
505.82	201.500
506.18	199.100
506.54	196.650
506.90	196.150
507.25	194.300
507.61	192.550
507.97	191.250
508.33	187.200
508.68	188.800
509.04	186.900
509.40	185.000
509.75	183.900
510.11	184.950
510.47	180.500
510.82	180.450
511.18	177.400
511.54	177.800
511.89	177.200
512.25	174.950
512.61	175.150
512.96	172.550
513.32	170.650
513.68	170.600
514.03	170.250
514.39	170.150
514.75	168.300
515.10	169.600
515.46	166.750
515.82	165.500
516.17	165.850
516.53	164.200
516.89	164.850
517.24	162.700
517.60	162.150
517.95	161.700
518.31	161.900
518.67	162.400
519.02	161.050
519.38	160.400
519.73	158.950
520.09	157.750
520.45	157.550
520.80	156.950
521.16	157.650
521.51	156.400
521.87	155.050
522.22	154.800
522.58	156.000
522.94	155.700
523.29	153.200
523.65	153.700
524.00	155.400
524.36	154.400
524.71	154.050
525.07	152.050
525.42	152.100
525.78	153.750
526.14	152.500
526.49	152.050
526.85	152.350
527.20	151.400
527.56	152.200
527.91	150.900
528.27	151.400
528.62	151.150
528.98	150.700
529.33	149.450
529.69	150.450
530.04	148.650
530.40	149.050
530.75	149.000
531.11	149.000
531.46	150.250
531.81	148.600
532.17	148.150
532.52	148.350
532.88	148.050
533.23	146.900
533.59	149.400
533.94	148.800
534.30	147.600
534.65	147.050
535.01	148.200
535.36	148.150
535.71	147.500
536.07	148.700
536.42	149.500
536.78	149.250
537.13	148.350
537.48	149.650
537.84	149.100
538.19	152.100
538.55	151.650
538.90	154.100
539.25	158.450
539.61	160.100
539.96	163.400
540.32	162.750
540.67	158.750
541.02	158.400
541.38	156.950
541.73	156.300
542.08	157.200
542.44	157.450
542.79	155.750
543.15	155.600
543.50	160.000
543.85	165.750
544.21	168.050
544.56	165.950
544.91	162.400
545.27	157.250
545.62	154.300
545.97	154.350
546.32	152.750
546.68	150.900
547.03	150.000
547.38	151.000
547.74	149.850
548.09	150.250
548.44	148.300
548.80	148.500
549.15	146.950
549.50	146.300
549.85	147.950
550.21	147.300
550.56	145.550
550.91	145.950
551.26	144.350
551.62	145.950
551.97	144.550
552.32	144.500
552.67	143.850
553.03	144.150
553.38	142.750
553.73	144.500
554.08	144.200
554.44	143.550
554.79	144.000
555.14	144.300
555.49	142.250
555.85	143.850
556.20	141.800
556.55	141.950
556.90	142.050
557.25	142.450
557.61	142.550
557.96	142.800
558.31	142.350
558.66	143.000
559.01	142.250
559.36	141.850
559.72	142.450
560.07	142.050
560.42	141.750
560.77	142.550
561.12	142.050
561.47	141.850
561.83	140.700
562.18	142.050
562.53	141.850
562.88	141.750
563.23	144.400
563.58	142.400
563.93	141.850
564.28	142.600
564.64	141.950
564.99	142.400
565.34	141.900
565.69	143.700
566.04	141.000
566.39	141.250
566.74	142.100
567.09	141.700
567.44	142.200
567.79	142.300
568.14	141.900
568.50	141.750
568.85	141.500
569.20	141.650
569.55	142.150
569.90	142.750
570.25	140.700
570.60	142.050
570.95	142.050
571.30	140.950
571.65	140.550
572.00	140.600
572.35	142.200
572.70	142.200
573.05	141.450
573.40	140.750
573.75	140.650
574.10	141.200
574.45	142.300
574.80	143.750
575.15	142.950
575.50	143.150
575.85	141.750
576.20	141.700
576.55	141.900
576.90	143.350
577.25	143.650
577.60	143.650
577.95	143.150
578.30	143.050
578.65	143.350
579.00	143.350
579.35	144.500
579.70	143.000
580.05	142.450
580.40	143.650
580.74	143.950
581.09	142.750
581.44	143.450
581.79	145.650
582.14	143.100
582.49	144.400
582.84	143.550
583.19	142.600
583.54	143.250
583.89	144.050
584.24	143.000
584.58	143.950
584.93	142.750
585.28	144.300
585.63	143.600
585.98	145.050
586.33	143.500
586.68	143.350
587.03	143.500
587.37	141.750
587.72	140.850
588.07	141.450
588.42	142.350
588.77	142.250
589.12	142.500
589.46	141.800
589.81	142.600
590.16	141.000
590.51	141.300
590.86	142.250
591.21	143.550
591.55	142.700
591.90	142.450
592.25	142.350
592.60	142.100
592.95	141.450
593.29	142.350
593.64	141.000
593.99	142.450
594.34	141.350
594.68	142.250
595.03	142.000
595.38	141.550
595.73	140.300
596.07	139.500
596.42	141.800
596.77	143.000
597.12	142.250
597.46	142.150
597.81	141.150
598.16	141.250
598.51	143.350
598.85	141.150
599.20	138.900
599.55	140.250
599.90	140.500
600.24	140.050
600.59	141.450
600.94	141.000
601.28	140.900
601.63	140.950
601.98	140.100
602.32	140.350
602.67	141.300
603.02	141.550
603.36	140.500
603.71	140.650
604.06	141.550
604.40	140.400
604.75	141.750
605.10	142.150
605.44	142.350
605.79	140.600
606.14	140.250
606.48	141.600
606.83	141.750
607.17	142.050
607.52	143.050
607.87	144.400
608.21	146.600
608.56	148.450
608.90	157.750
609.25	161.600
609.60	164.600
609.94	161.650
610.29	158.200
610.63	154.250
610.98	152.000
611.33	151.600
611.67	149.400
612.02	147.600
612.36	147.600
612.71	147.000
613.05	146.700
613.40	145.350
613.74	144.750
614.09	143.450
614.44	142.350
614.78	141.450
615.13	141.250
615.47	141.850
615.82	142.750
616.16	140.750
616.51	141.850
616.85	141.850
617.20	140.750
617.54	142.250
617.89	141.550
618.23	141.950
618.58	141.950
618.92	140.900
619.27	141.100
619.61	141.400
619.96	141.650
620.30	142.850
620.64	141.750
620.99	142.450
621.33	141.700
621.68	143.350
622.02	142.300
622.37	141.200
622.71	142.250
623.06	142.050
623.40	141.650
623.74	142.200
624.09	142.400
624.43	142.300
624.78	140.250
625.12	140.750
625.46	141.200
625.81	140.900
626.15	141.700
626.50	141.700
626.84	139.300
627.18	142.200
627.53	141.000
627.87	141.050
628.21	141.900
628.56	141.050
628.90	141.200
629.25	141.150
629.59	142.150
629.93	140.600
630.28	140.950
630.62	139.600
630.96	140.600
631.31	139.600
631.65	139.550
631.99	140.300
632.34	140.700
632.68	139.300
633.02	139.150
633.36	139.950
633.71	139.900
634.05	139.650
634.39	140.100
634.74	140.400
635.08	139.600
635.42	138.700
635.76	139.850
636.11	138.600
636.45	142.300
636.79	140.450
637.14	138.600
637.48	139.800
637.82	139.700
638.16	139.350
638.50	140.200
638.85	139.350
639.19	141.400
639.53	140.900
639.87	138.350
640.22	139.400
640.56	138.600
640.90	137.400
641.24	139.000
641.58	139.350
641.93	139.250
642.27	139.500
642.61	140.200
642.95	141.050
643.29	139.050
643.64	139.100
643.98	138.150
644.32	139.700
644.66	138.900
645.00	139.300
645.34	139.000
645.68	139.250
646.03	140.600
646.37	139.750
646.71	139.500
647.05	140.100
647.39	138.700
647.73	140.500
648.07	139.400
648.42	140.950
648.76	139.800
649.10	139.750
649.44	141.000
649.78	139.250
650.12	140.450
650.46	140.000
650.80	139.650
651.14	140.950
651.48	139.950
651.82	139.550
652.16	140.850
652.51	138.600
652.85	138.200
653.19	139.700
653.53	138.200
653.87	139.950
654.21	139.550
654.55	140.350
654.89	139.000
655.23	139.050
655.57	139.200
655.91	140.000
656.25	139.200
656.59	138.550
656.93	139.250
657.27	139.500
657.61	141.200
657.95	139.650
658.29	139.350
658.63	139.200
658.97	140.500
659.31	141.750
659.65	139.050
659.99	139.650
660.33	139.600
660.67	139.700
661.01	140.500
661.35	139.650
661.68	139.550
662.02	139.300
662.36	139.350
662.70	140.050
663.04	138.600
663.38	139.550
663.72	139.000
664.06	139.100
664.40	139.050
664.74	138.450
665.08	140.000
665.42	141.500
665.75	138.700
666.09	138.400
666.43	141.150
666.77	140.650
667.11	138.200
667.45	139.150
667.79	138.850
668.12	137.550
668.46	138.200
668.80	138.350
669.14	139.500
669.48	140.650
669.82	140.150
670.16	140.250
670.49	139.100
670.83	138.500
671.17	137.600
671.51	138.550
671.85	139.200
672.18	139.650
672.52	137.600
672.86	139.450
673.20	137.700
673.54	138.650
673.87	138.200
674.21	139.150
674.55	138.200
674.89	138.450
675.22	139.450
675.56	139.350
675.90	139.700
676.24	139.500
676.57	139.200
676.91	139.450
677.25	138.550
677.59	138.200
677.92	138.350
678.26	139.200
678.60	139.550
678.93	138.850
679.27	138.300
679.61	138.650
679.95	137.800
680.28	138.950
680.62	138.850
680.96	139.250
681.29	139.250
681.63	139.350
681.97	139.300
682.30	138.650
682.64	138.250
682.98	139.000
683.31	139.800
683.65	139.700
683.99	138.600
684.32	138.250
684.66	138.150
685.00	138.550
685.33	140.150
685.67	139.000
686.00	138.250
686.34	138.650
686.68	141.000
687.01	138.750
687.35	138.750
687.68	140.800
688.02	139.450
688.36	139.300
688.69	139.000
689.03	138.650
689.36	138.750
689.70	138.300
690.03	138.150
690.37	138.100
690.71	137.700
691.04	137.150
691.38	138.200
691.71	138.350
692.05	139.150
692.38	140.050
692.72	139.250
693.05	139.650
693.39	139.900
693.72	138.550
694.06	138.400
694.39	138.200
694.73	137.700
695.06	137.850
695.40	138.000
695.73	138.400
696.07	140.100
696.40	138.450
696.74	140.550
697.07	139.300
697.41	137.700
697.74	140.250
698.08	138.950
698.41	139.000
698.74	139.150
699.08	138.650
699.41	138.550
699.75	138.250
700.08	138.050
700.42	138.450
700.75	138.500
701.08	138.550
701.42	138.150
701.75	139.150
702.09	139.600
702.42	141.100
702.75	139.650
703.09	137.950
703.42	138.900
703.75	139.950
704.09	138.950
704.42	139.450
704.76	139.450
705.09	139.000
705.42	138.850
705.76	139.750
706.09	138.300
706.42	141.050
706.76	138.800
707.09	139.200
707.42	139.200
707.76	139.000
708.09	138.700
708.42	138.850
708.75	139.050
709.09	137.850
709.42	138.150
709.75	137.800
710.09	140.000
710.42	138.500
710.75	139.200
711.08	139.650
711.42	139.700
711.75	139.350
712.08	138.400
712.41	138.800
712.75	139.400
713.08	137.700
713.41	138.850
713.74	138.200
714.08	138.750
714.41	139.500
714.74	138.300
715.07	139.300
715.41	138.050
715.74	139.750
716.07	138.450
716.40	138.400
716.73	139.100
717.06	137.500
717.40	138.200
717.73	137.650
718.06	139.050
718.39	139.100
718.72	139.800
719.05	138.700
719.39	138.300
719.72	139.100
720.05	138.500
720.38	138.650
720.71	137.600
721.04	138.750
721.37	139.400
721.71	138.400
722.04	137.600
722.37	138.400
722.70	138.050
723.03	138.550
723.36	137.750
723.69	138.250
724.02	137.600
724.35	138.050
724.68	139.600
725.01	136.950
725.35	138.150
725.68	139.000
726.01	138.950
726.34	139.050
726.67	138.350
727.00	137.400
727.33	137.950
727.66	138.000
727.99	139.450
728.32	137.500
728.65	138.400
728.98	137.500
729.31	138.650
729.64	138.700
729.97	136.700
730.30	137.850
730.63	138.100
730.96	138.150
731.29	137.450
731.62	137.500
731.95	139.550
732.28	139.850
732.61	138.750
732.94	139.750
733.27	138.600
733.60	137.800
733.93	137.050
734.25	138.350
734.58	138.500
734.91	138.000
735.24	138.100
735.57	138.700
735.90	139.750
736.23	138.700
736.56	138.700
736.89	137.600
737.22	138.700
737.55	138.750
737.87	140.000
738.20	138.400
738.53	139.050
738.86	137.900
739.19	137.600
739.52	139.300
739.85	138.700
740.17	137.550
740.50	138.350
740.83	138.300
741.16	138.200
741.49	140.200
741.82	137.950
742.14	137.500
742.47	139.250
742.80	138.400
743.13	137.600
743.46	138.000
743.78	139.200
744.11	138.350
744.44	139.200
744.77	138.700
745.10	138.250
745.42	138.000
745.75	138.350
746.08	138.400
746.41	137.650
746.73	137.750
747.06	139.050
747.39	137.750
747.72	136.800
748.04	138.500
748.37	139.500
748.70	138.200
749.02	139.500
749.35	138.600
749.68	137.650
750.01	138.500
750.33	139.950
750.66	139.450
750.99	138.750
751.31	137.450
751.64	136.800
751.97	137.450
752.29	140.100
752.62	136.800
752.95	137.550
753.27	138.650
753.60	139.750
753.93	139.250
754.25	137.450
754.58	138.150
754.91	137.750
755.23	140.400
755.56	142.600
755.88	138.700
756.21	138.950
756.54	138.150
756.86	138.900
757.19	138.000
757.51	137.950
757.84	137.950
758.17	137.900
758.49	138.000
758.82	136.950
759.14	138.150
759.47	137.550
759.79	138.300
760.12	138.200
760.44	137.600
760.77	138.450
761.09	137.300
761.42	138.800
761.75	138.750
762.07	138.500
762.40	138.100
762.72	137.650
763.05	138.950
763.37	138.050
763.70	137.400
764.02	139.300
764.35	137.300
764.67	137.100
764.99	138.450
765.32	137.650
765.64	138.400
765.97	137.150
766.29	137.000
766.62	136.750
766.94	139.400
767.27	138.400
767.59	137.150
767.91	137.550
768.24	139.250
768.56	138.800
768.89	139.050
769.21	137.700
769.54	137.700
769.86	137.700
770.18	138.200
770.51	138.000
770.83	138.200
771.15	139.050
771.48	137.850
771.80	138.600
772.13	139.000
772.45	138.450
772.77	138.000
773.10	137.350
773.42	138.800
773.74	137.400
774.07	136.850
774.39	137.800
774.71	137.350
775.04	138.250
775.36	137.550
775.68	138.450
776.01	139.100
776.33	137.100
776.65	136.850
776.97	136.450
777.30	139.300
777.62	138.400
777.94	139.600
778.26	137.550
778.59	137.100
778.91	136.150
779.23	137.650
779.55	139.850
779.88	139.650
780.20	138.200
780.52	136.000
780.84	137.000
781.17	136.600
781.49	138.050
781.81	137.600
782.13	138.250
782.45	139.350
782.78	137.800
783.10	138.450
783.42	138.250
783.74	137.650
784.06	138.900
784.39	136.750
784.71	138.800
785.03	138.900
785.35	139.550
785.67	138.900
785.99	137.750
786.31	138.550
786.64	137.850
786.96	137.650
787.28	136.900
787.60	136.950
787.92	137.750
788.24	138.200
788.56	137.750
788.88	137.600
789.20	142.600
789.53	139.900
789.85	138.150
790.17	137.900
790.49	138.100
790.81	138.150
791.13	138.250
791.45	137.950
791.77	137.550
792.09	138.500
792.41	137.350
792.73	137.250
793.05	137.250
793.37	138.900
793.69	139.550
794.01	138.400
794.33	138.600
794.65	137.950
794.97	138.000
795.29	137.850
795.61	137.850
795.93	137.650
796.25	137.100
796.57	137.700
796.89	137.350
797.21	139.450
797.53	137.800
797.85	139.700
798.17	136.600
798.49	137.650
798.81	137.900
799.13	137.950
799.45	138.700
799.77	137.300
800.08	137.650
800.40	135.950
800.72	137.050
801.04	137.300
801.36	137.200
801.68	136.050
802.00	137.000
802.32	138.000
802.64	137.000
802.95	137.200
803.27	138.250
803.59	138.050
803.91	137.150
804.23	137.850
804.55	137.150
804.87	137.400
805.18	138.550
805.50	138.100
805.82	137.600
806.14	138.600
806.46	137.850
806.77	138.450
807.09	138.750
807.41	137.600
807.73	137.700
808.05	138.150
808.36	138.050
808.68	138.150
809.00	138.900
809.32	139.550
809.63	136.950
809.95	139.000
810.27	138.650
810.59	137.300
810.90	137.000
811.22	137.300
811.54	137.150
811.86	138.750
812.17	139.350
812.49	136.950
812.81	137.950
813.12	138.600
813.44	138.050
813.76	137.150
814.08	138.300
814.39	138.400
814.71	138.200
815.03	138.300
815.34	137.350
815.66	136.700
815.98	138.650
816.29	137.850
816.61	138.550
816.92	137.500
817.24	135.900
817.56	138.000
817.87	136.800
818.19	137.950
818.51	138.000
818.82	137.250
819.14	137.600
819.45	138.000
819.77	137.650
820.09	138.150
820.40	137.900
820.72	138.100
821.03	137.250
821.35	137.800
821.66	136.850
821.98	138.900
822.29	137.450
822.61	137.800
822.93	138.300
823.24	138.700
823.56	138.300
823.87	137.950
824.19	137.550
824.50	137.850
824.82	138.050
825.13	138.500
825.45	137.850
825.76	136.600
826.08	137.650
826.39	137.800
826.71	138.050
827.02	137.900
827.33	137.200
827.65	137.700
827.96	136.900
828.28	137.750
828.59	137.750
828.91	135.950
829.22	137.000
829.54	138.300
829.85	137.750
830.16	138.950
830.48	138.200
830.79	139.100
831.11	136.500
831.42	137.050
831.73	137.550
832.05	136.800
832.36	137.600
832.67	138.100
832.99	137.250
833.30	137.050
833.62	137.100
833.93	138.450
834.24	137.950
834.56	138.600
834.87	138.000
835.18	139.150
835.50	136.850
835.81	137.000
836.12	136.950
836.43	136.450
836.75	136.900
837.06	136.700
837.37	137.150
837.69	138.000
838.00	138.800
838.31	137.300
838.62	136.900
838.94	137.350
839.25	137.800
839.56	137.850
839.87	138.850
840.19	138.350
840.50	138.900
840.81	138.550
841.12	137.300
841.44	137.650
841.75	137.400
842.06	137.100
842.37	136.950
842.68	138.100
843.00	138.400
843.31	136.650
843.62	137.600
843.93	137.250
844.24	138.750
844.55	136.250
844.87	136.900
845.18	138.550
845.49	136.300
845.80	139.500
846.11	137.100
846.42	138.000
846.73	137.500
847.05	137.800
847.36	137.250
847.67	137.500
847.98	136.950
848.29	137.300
848.60	138.300
848.91	137.350
849.22	135.950
849.53	136.700
849.84	136.400
850.15	135.950
850.46	136.750
850.78	137.100
851.09	136.850
851.40	136.950
851.71	137.600
852.02	138.200
852.33	136.950
852.64	138.800
852.95	137.150
853.26	136.150
853.57	137.000
853.88	139.300
854.19	138.650
854.50	137.550
854.81	138.200
855.12	139.350
855.43	137.400
855.74	137.800
856.05	137.800
856.35	136.850
856.66	136.350
856.97	137.350
857.28	137.800
857.59	138.700
857.90	136.250
858.21	137.050
858.52	136.600
858.83	136.000
859.14	137.650
859.45	137.250
859.76	137.550
860.06	137.650
860.37	137.900
860.68	138.050
860.99	137.900
861.30	137.500
861.61	137.400
861.92	137.600
862.23	138.300
862.53	138.050
862.84	137.000
863.15	136.800
863.46	137.800
863.77	136.250
864.08	137.750
864.38	137.650
864.69	137.650
865.00	138.100
865.31	136.700
865.61	137.850
865.92	139.400
866.23	137.450
866.54	137.650
866.85	135.950
867.15	136.250
867.46	137.550
867.77	137.650
868.08	136.800
868.38	136.950
868.69	137.450
869.00	139.150
869.30	138.350
869.61	138.850
869.92	138.650
870.23	138.200
870.53	137.400
870.84	136.250
871.15	137.050
871.45	137.650
871.76	137.700
872.07	138.450
872.37	138.100
872.68	137.450
872.99	137.650
873.29	137.750
873.60	137.400
873.91	137.400
874.21	136.650
874.52	137.650
874.82	138.650
875.13	138.350
875.44	137.450
875.74	137.900
876.05	137.850
876.35	136.850
876.66	137.700
876.97	137.650
877.27	137.250
877.58	137.300
877.88	137.950
878.19	137.650
878.49	138.300
878.80	138.100
879.10	139.900
879.41	136.950
879.72	137.550
880.02	137.700
880.33	138.300
880.63	136.200
880.94	137.900
881.24	136.650
881.55	137.450
881.85	136.650
882.16	137.000
882.46	136.400
882.76	138.900
883.07	138.600
883.37	138.900
883.68	137.650
883.98	138.350
884.29	137.450
884.59	137.400
884.90	140.050
885.20	138.200
885.50	139.150
885.81	138.050
886.11	138.250
886.42	138.650
886.72	138.200
887.02	137.200
887.33	137.800
887.63	137.350
887.94	137.350
888.24	138.350
888.54	136.300
888.85	136.950
889.15	138.050
889.45	138.600
889.76	137.600
890.06	137.250
890.36	139.100
890.67	139.900
890.97	137.300
891.27	137.250
891.58	138.600
891.88	136.750
892.18	137.250
892.48	138.300
892.79	137.450
893.09	137.850
893.39	136.300
893.70	137.600
894.00	137.550
894.30	137.750
894.60	137.450
894.91	138.350
895.21	137.350
895.51	138.650
895.81	136.750
896.11	136.800
896.42	137.300
896.72	138.050
897.02	138.150
897.32	136.700
897.62	138.150
897.93	137.900
898.23	137.400
898.53	137.750
898.83	138.450
899.13	138.200
899.43	136.900
899.74	136.350
900.04	138.000
900.34	136.750
900.64	137.700
900.94	138.400
901.24	137.550
901.54	138.150
901.84	139.450
902.15	137.150
902.45	137.400
902.75	136.100
903.05	137.150
903.35	137.100
903.65	137.350
903.95	137.050
904.25	136.350
904.55	137.200
904.85	138.100
905.15	139.400
905.45	138.800
905.75	136.550
906.05	135.800
906.35	137.600
906.65	137.450
906.95	138.300
907.25	136.600
907.55	137.600
907.85	136.550
908.15	137.600
908.45	137.750
908.75	136.400
909.05	136.400
909.35	136.250
909.65	137.450
909.95	139.000
910.25	137.550
910.55	138.400
910.85	140.100
911.15	138.000
911.45	137.900
911.75	137.100
912.05	138.350
912.34	138.900
912.64	138.200
912.94	136.300
913.24	136.650
913.54	138.250
913.84	139.450
914.14	137.500
914.44	137.050
914.73	138.900
915.03	138.200
915.33	137.300
915.63	136.800
915.93	137.550
916.23	137.550
916.52	137.550
916.82	138.550
917.12	139.200
917.42	138.250
917.72	136.850
918.01	138.150
918.31	137.800
918.61	137.650
918.91	137.500
919.21	139.000
919.50	138.700
919.80	136.050
920.10	137.650
920.40	138.700
920.69	136.150
920.99	138.150
921.29	137.350
921.58	137.400
921.88	137.700
922.18	138.150
922.48	137.550
922.77	137.800
923.07	137.400
923.37	138.250
923.66	137.300
923.96	136.600
924.26	137.250
924.55	136.800
924.85	138.100
925.15	137.300
925.44	137.000
925.74	137.150
926.04	138.750
926.33	136.900
926.63	137.450
926.92	138.350
927.22	138.400
927.52	136.600
927.81	137.150
928.11	137.250
928.40	137.600
928.70	137.200
929.00	137.550
929.29	137.700
929.59	137.100
929.88	136.950
930.18	136.200
930.47	137.250
930.77	136.950
931.06	138.600
931.36	136.950
931.65	136.600
931.95	136.800
932.24	137.050
932.54	137.950
932.83	136.750
933.13	136.500
933.42	136.500
933.72	137.050
934.01	137.250
934.31	137.100
934.60	137.600
934.90	137.200
935.19	136.500
935.49	136.050
935.78	137.500
936.07	139.150
936.37	137.950
936.66	138.200
936.96	138.250
937.25	137.650
937.54	138.400
937.84	136.250
938.13	136.600
938.43	136.900
938.72	136.750
939.01	137.200
939.31	137.200
939.60	137.600
939.89	138.100
940.19	137.750
940.48	138.300
940.77	137.700
941.07	137.500
941.36	137.750
941.65	137.350
941.95	138.650
942.24	136.900
942.53	137.300
942.82	136.800
943.12	138.250
943.41	137.450
943.70	137.450
944.00	136.650
944.29	137.150
944.58	137.300
944.87	137.550
945.17	137.650
945.46	137.000
945.75	136.450
946.04	136.600
946.33	137.550
946.63	138.000
946.92	136.450
947.21	137.100
947.50	136.400
947.79	136.800
948.09	136.250
948.38	138.050
948.67	137.300
948.96	136.150
949.25	137.000
949.54	137.050
949.83	136.450
950.13	137.850
950.42	136.100
950.71	136.300
951.00	136.150
951.29	137.400
951.58	138.550
951.87	139.950
952.16	137.700
952.45	136.800
952.75	136.650
953.04	137.800
953.33	137.750
953.62	136.700
953.91	136.750
954.20	138.400
954.49	138.050
954.78	136.650
955.07	136.150
955.36	138.550
955.65	138.050
955.94	138.250
956.23	137.000
956.52	137.950
956.81	138.350
957.10	137.050
957.39	136.950
957.68	137.800
957.97	137.050
958.26	137.450
958.55	138.450
958.84	137.550
959.13	137.250
959.42	138.950
959.71	137.600
960.00	137.500
960.28	137.450
960.57	136.250
960.86	136.300
961.15	135.600
961.44	137.050
961.73	136.750
962.02	136.450
962.31	137.100
962.60	138.550
962.88	137.700
963.17	137.500
963.46	136.400
963.75	135.400
964.04	136.950
964.33	138.500
964.61	137.800
964.90	137.400
965.19	137.600
965.48	136.450
965.77	136.950
966.05	137.200
966.34	137.200
966.63	136.800
966.92	137.800
967.21	138.800
967.49	137.050
967.78	137.950
968.07	137.800
968.36	138.900
968.64	138.350
968.93	137.850
969.22	135.700
969.51	137.150
969.79	136.000
970.08	136.250
970.37	138.050
970.65	137.100
970.94	136.650
971.23	136.950
971.51	136.750
971.80	136.200
972.09	136.750
972.37	137.250
972.66	136.950
972.95	139.150
973.23	137.150
973.52	136.100
973.81	136.050
974.09	136.550
974.38	136.250
974.66	136.550
974.95	137.200
975.24	137.050
975.52	137.200
975.81	137.250
976.09	136.950
976.38	137.400
976.66	138.250
976.95	137.250
977.24	136.100
977.52	136.500
977.81	137.100
978.09	137.450
978.38	137.500
978.66	136.550
978.95	136.950
979.23	136.650
979.52	136.200
979.80	135.800
980.09	136.850
980.37	139.150
980.66	137.350
980.94	137.100
981.23	138.250
981.51	137.450
981.80	136.150
982.08	136.750
982.36	138.100
982.65	137.650
982.93	136.700
983.22	136.700
983.50	138.300
983.78	136.600
984.07	136.450
984.35	137.650
984.64	137.000
984.92	137.150
985.20	138.450
985.49	138.350
985.77	138.800
986.05	137.850
986.34	138.000
986.62	136.150
986.91	138.400
987.19	138.350
987.47	138.100
987.75	138.550
988.04	137.250
988.32	139.300
988.60	137.500
988.89	137.250
989.17	136.750
989.45	137.250
989.74	137.800
990.02	137.150
990.30	138.200
990.58	136.800
990.87	137.100
991.15	136.700
991.43	137.150
991.71	137.400
991.99	137.450
992.28	138.600
992.56	137.950
992.84	136.950
993.12	137.300
993.40	138.050
993.69	137.450
993.97	136.750
994.25	138.150
994.53	136.550
994.81	138.150
995.09	136.700
995.38	137.200
995.66	137.750
995.94	138.700
996.22	137.500
996.50	137.900
996.78	136.850
997.06	136.250
997.34	136.700
997.63	137.950
997.91	138.200
998.19	137.850
998.47	136.950
998.75	136.950
999.03	137.100
999.31	137.250
999.59	138.950
999.87	136.950
1000.15	137.800
1000.43	136.000
1000.71	137.300
1000.99	137.500
1001.27	136.850
1001.55	138.300
1001.83	136.650
1002.11	136.600
1002.39	137.500
1002.67	137.650
1002.95	137.800
1003.23	137.650
1003.51	137.800
1003.79	138.100
1004.07	136.450
1004.35	138.200
1004.63	137.000
1004.91	138.300
1005.19	136.950
1005.46	138.000
1005.74	137.600
1006.02	138.000
1006.30	137.150
1006.58	137.750
1006.86	137.000
1007.14	137.800
1007.42	137.400
1007.70	136.850
1007.97	138.500
1008.25	136.800
1008.53	137.050
1008.81	136.100
1009.09	137.450
1009.37	136.000
1009.64	136.250
1009.92	136.150
1010.20	136.950
1010.48	137.750
1010.76	137.550
1011.03	138.100
1011.31	136.600
1011.59	137.750
1011.87	136.600
1012.14	137.350
1012.42	136.800
1012.70	136.100
1012.98	136.900
1013.25	137.250
1013.53	136.500
1013.81	137.600
1014.08	136.850
1014.36	136.950
1014.64	136.650
1014.92	137.750
1015.19	136.700
1015.47	138.100
1015.75	138.700
1016.02	138.600
1016.30	137.150
1016.58	139.650
1016.85	137.550
>>>>>End Spectral Data<<<<<
