OOIBase32 Version 2.0.6.5 Data File
++++++++++++++++++++++++++++++++++++
Date: 04-23-2021, 12:07:35
User: Valued Ocean Optics Customer
Spectrometer Serial Number: USB2E5007
Spectrometer Channel: Master
Integration Time (msec): 45
Spectra Averaged: 20
Boxcar Smoothing: 0
Correct for Electrical Dark: Disabled
Time Normalized: Disabled
Dual-beam Reference: Disabled
Reference Channel: Master
Temperature: Not acquired
Spectrometer Type: S2000
ADC Type: USB2000
Number of Pixels in File: 2048
Graph Title: 
>>>>>Begin Spectral Data<<<<<
340.15	0.000
340.52	122.300
340.90	123.650
341.27	126.200
341.64	126.250
342.01	130.450
342.38	130.850
342.76	131.600
343.13	133.200
343.50	132.650
343.87	133.050
344.24	132.750
344.61	132.900
344.98	132.250
345.36	133.000
345.73	133.850
346.10	132.500
346.47	133.250
346.84	132.450
347.21	131.750
347.58	131.500
347.96	136.550
348.33	131.950
348.70	132.400
349.07	132.550
349.44	132.250
349.81	134.450
350.18	133.800
350.55	132.400
350.92	133.000
351.30	132.650
351.67	133.250
352.04	132.300
352.41	132.100
352.78	134.400
353.15	134.150
353.52	133.500
353.89	135.050
354.26	132.800
354.63	132.000
355.00	134.150
355.37	134.100
355.75	134.350
356.12	133.200
356.49	134.900
356.86	134.150
357.23	134.000
357.60	134.050
357.97	133.050
358.34	134.000
358.71	135.700
359.08	134.550
359.45	133.250
359.82	134.150
360.19	134.750
360.56	133.600
360.93	134.750
361.30	134.150
361.67	132.750
362.04	135.900
362.41	134.400
362.78	134.450
363.15	136.250
363.52	134.650
363.89	134.550
364.26	133.400
364.63	133.850
365.00	134.000
365.37	135.600
365.74	135.600
366.11	135.050
366.48	136.100
366.85	133.550
367.22	133.600
367.59	137.500
367.96	135.750
368.33	135.750
368.70	135.550
369.07	136.450
369.44	135.700
369.81	136.350
370.18	137.300
370.55	135.350
370.92	135.800
371.29	134.800
371.66	135.350
372.03	135.800
372.40	135.400
372.77	136.500
373.13	135.050
373.50	135.450
373.87	136.200
374.24	136.450
374.61	136.950
374.98	136.800
375.35	136.900
375.72	136.350
376.09	136.450
376.46	135.700
376.83	136.100
377.20	135.900
377.56	136.400
377.93	136.150
378.30	137.100
378.67	136.550
379.04	136.500
379.41	135.750
379.78	137.650
380.15	138.300
380.51	137.800
380.88	137.050
381.25	137.100
381.62	136.800
381.99	135.600
382.36	136.600
382.73	136.350
383.09	137.550
383.46	137.100
383.83	137.450
384.20	138.150
384.57	137.700
384.94	137.850
385.31	136.800
385.67	137.750
386.04	136.350
386.41	136.500
386.78	136.250
387.15	138.500
387.51	138.550
387.88	137.850
388.25	137.900
388.62	137.550
388.99	138.050
389.36	137.250
389.72	136.900
390.09	140.900
390.46	138.300
390.83	137.950
391.19	138.600
391.56	137.250
391.93	137.450
392.30	137.800
392.67	138.200
393.03	137.450
393.40	137.900
393.77	138.700
394.14	137.700
394.50	138.200
394.87	137.550
395.24	137.400
395.61	138.150
395.97	138.150
396.34	137.850
396.71	136.500
397.08	139.850
397.44	137.950
397.81	138.050
398.18	138.650
398.55	137.450
398.91	137.300
399.28	137.300
399.65	139.200
400.01	140.150
400.38	137.850
400.75	137.650
401.12	138.400
401.48	137.150
401.85	138.300
402.22	138.000
402.58	138.100
402.95	139.700
403.32	137.300
403.68	138.450
404.05	138.250
404.42	137.450
404.78	138.300
405.15	139.000
405.52	139.550
405.88	139.200
406.25	137.950
406.62	137.700
406.98	138.050
407.35	138.700
407.72	137.100
408.08	139.350
408.45	139.400
408.82	139.250
409.18	138.500
409.55	138.850
409.91	138.200
410.28	139.250
410.65	138.650
411.01	138.100
411.38	138.000
411.75	138.100
412.11	138.150
412.48	139.800
412.84	138.750
413.21	138.550
413.58	138.300
413.94	139.000
414.31	138.100
414.67	140.050
415.04	138.650
415.41	138.200
415.77	139.800
416.14	139.550
416.50	138.450
416.87	138.900
417.23	137.550
417.60	138.650
417.97	138.300
418.33	139.350
418.70	139.250
419.06	140.950
419.43	139.250
419.79	139.100
420.16	139.200
420.52	139.900
420.89	139.650
421.25	139.900
421.62	139.950
421.98	139.700
422.35	139.250
422.72	140.150
423.08	139.550
423.45	140.150
423.81	140.050
424.18	141.350
424.54	140.250
424.91	140.100
425.27	141.150
425.64	140.950
426.00	141.300
426.37	142.050
426.73	140.650
427.09	141.950
427.46	143.600
427.82	145.150
428.19	144.700
428.55	144.600
428.92	144.950
429.28	145.350
429.65	145.950
430.01	147.200
430.38	146.200
430.74	145.000
431.11	148.850
431.47	149.300
431.83	150.950
432.20	150.250
432.56	152.050
432.93	153.450
433.29	153.850
433.66	156.050
434.02	161.500
434.38	159.400
434.75	159.450
435.11	158.400
435.48	160.900
435.84	161.350
436.20	164.400
436.57	164.700
436.93	166.900
437.30	170.000
437.66	169.700
438.02	176.100
438.39	177.650
438.75	178.150
439.12	184.800
439.48	186.750
439.84	189.550
440.21	190.650
440.57	192.800
440.93	204.950
441.30	204.650
441.66	208.550
442.02	213.900
442.39	216.050
442.75	222.500
443.11	225.300
443.48	233.100
443.84	239.250
444.20	241.200
444.57	257.700
444.93	263.750
445.29	279.500
445.66	277.650
446.02	290.350
446.38	308.900
446.75	317.650
447.11	328.550
447.47	331.300
447.84	342.300
448.20	365.400
448.56	383.050
448.92	396.800
449.29	408.800
449.65	415.100
450.01	433.150
450.37	436.100
450.74	456.650
451.10	479.900
451.46	498.150
451.83	490.550
452.19	509.100
452.55	497.750
452.91	531.050
453.28	546.650
453.64	565.650
454.00	571.100
454.36	533.900
454.72	574.400
455.09	562.850
455.45	577.300
455.81	570.650
456.17	565.350
456.54	563.650
456.90	562.850
457.26	536.300
457.62	541.050
457.98	542.350
458.35	536.500
458.71	506.700
459.07	506.850
459.43	484.850
459.79	479.250
460.16	452.750
460.52	445.400
460.88	439.600
461.24	438.750
461.60	427.500
461.96	429.150
462.33	410.050
462.69	396.900
463.05	382.250
463.41	388.050
463.77	375.950
464.13	361.950
464.49	366.950
464.86	354.800
465.22	348.450
465.58	346.100
465.94	346.850
466.30	337.800
466.66	341.500
467.02	339.350
467.38	332.300
467.75	326.850
468.11	321.100
468.47	318.900
468.83	316.250
469.19	315.250
469.55	313.400
469.91	306.600
470.27	293.500
470.63	299.100
470.99	297.700
471.35	289.650
471.72	287.350
472.08	285.200
472.44	281.500
472.80	272.450
473.16	272.350
473.52	269.600
473.88	264.400
474.24	258.200
474.60	255.650
474.96	250.750
475.32	247.550
475.68	241.650
476.04	240.150
476.40	235.300
476.76	234.800
477.12	228.150
477.48	226.000
477.84	226.600
478.20	220.000
478.56	216.450
478.92	214.900
479.28	210.900
479.64	210.500
480.00	207.550
480.36	209.650
480.72	202.900
481.08	204.300
481.44	204.000
481.80	199.550
482.16	199.100
482.52	197.300
482.88	195.900
483.24	195.850
483.60	195.800
483.96	193.250
484.32	193.150
484.68	190.850
485.04	190.350
485.40	189.650
485.76	188.900
486.12	188.750
486.48	185.550
486.83	185.200
487.19	182.950
487.55	181.450
487.91	182.350
488.27	179.450
488.63	179.650
488.99	177.350
489.35	177.150
489.71	173.450
490.07	171.900
490.43	171.200
490.78	170.600
491.14	171.700
491.50	168.850
491.86	168.300
492.22	165.100
492.58	163.200
492.94	162.400
493.30	163.350
493.65	161.650
494.01	159.800
494.37	161.100
494.73	158.250
495.09	158.250
495.45	157.250
495.80	157.250
496.16	154.750
496.52	154.700
496.88	154.500
497.24	153.050
497.60	153.700
497.95	152.300
498.31	151.700
498.67	149.650
499.03	151.300
499.39	150.850
499.74	149.200
500.10	148.750
500.46	149.000
500.82	149.000
501.18	149.000
501.53	147.400
501.89	146.650
502.25	147.350
502.61	146.500
502.96	146.450
503.32	144.950
503.68	146.500
504.04	146.350
504.40	144.000
504.75	144.400
505.11	144.350
505.47	143.950
505.82	145.300
506.18	144.650
506.54	143.500
506.90	143.850
507.25	142.750
507.61	143.800
507.97	144.150
508.33	142.350
508.68	143.300
509.04	142.700
509.40	141.800
509.75	141.500
510.11	142.950
510.47	142.100
510.82	141.000
511.18	140.600
511.54	141.200
511.89	141.600
512.25	141.350
512.61	140.800
512.96	141.000
513.32	140.650
513.68	141.500
514.03	140.900
514.39	141.300
514.75	140.200
515.10	142.300
515.46	140.900
515.82	139.750
516.17	139.750
516.53	139.850
516.89	140.200
517.24	139.100
517.60	139.050
517.95	139.700
518.31	138.700
518.67	140.200
519.02	138.950
519.38	139.950
519.73	139.050
520.09	138.250
520.45	138.800
520.80	139.100
521.16	139.650
521.51	138.400
521.87	138.100
522.22	138.100
522.58	138.650
522.94	138.100
523.29	137.050
523.65	138.200
524.00	140.550
524.36	139.000
524.71	138.550
525.07	137.500
525.42	138.550
525.78	138.000
526.14	137.850
526.49	137.900
526.85	138.200
527.20	137.650
527.56	138.300
527.91	138.650
528.27	138.300
528.62	138.050
528.98	138.850
529.33	137.550
529.69	138.100
530.04	137.300
530.40	136.800
530.75	138.800
531.11	138.500
531.46	137.900
531.81	137.600
532.17	137.800
532.52	139.000
532.88	137.500
533.23	137.000
533.59	139.650
533.94	138.100
534.30	138.050
534.65	137.000
535.01	138.450
535.36	139.950
535.71	138.600
536.07	138.800
536.42	140.650
536.78	141.000
537.13	140.250
537.48	141.250
537.84	141.200
538.19	142.750
538.55	143.650
538.90	145.650
539.25	150.200
539.61	152.100
539.96	152.700
540.32	154.900
540.67	152.300
541.02	151.200
541.38	150.300
541.73	148.800
542.08	148.300
542.44	149.800
542.79	149.200
543.15	149.100
543.50	153.850
543.85	158.000
544.21	160.300
544.56	157.950
544.91	154.500
545.27	149.200
545.62	146.950
545.97	147.800
546.32	145.350
546.68	143.650
547.03	142.600
547.38	144.350
547.74	142.250
548.09	141.950
548.44	140.750
548.80	141.850
549.15	140.300
549.50	137.650
549.85	140.450
550.21	140.400
550.56	140.550
550.91	139.100
551.26	137.700
551.62	138.150
551.97	137.800
552.32	137.650
552.67	137.500
553.03	138.150
553.38	137.800
553.73	138.000
554.08	137.300
554.44	136.550
554.79	137.200
555.14	137.600
555.49	136.000
555.85	136.200
556.20	137.150
556.55	136.800
556.90	134.950
557.25	135.650
557.61	135.850
557.96	137.500
558.31	136.500
558.66	135.300
559.01	136.050
559.36	136.150
559.72	136.950
560.07	136.650
560.42	136.650
560.77	137.650
561.12	137.000
561.47	135.800
561.83	136.450
562.18	137.950
562.53	136.550
562.88	137.000
563.23	139.600
563.58	137.950
563.93	135.800
564.28	138.050
564.64	136.650
564.99	135.600
565.34	136.050
565.69	138.300
566.04	136.500
566.39	135.250
566.74	136.100
567.09	136.450
567.44	137.500
567.79	135.900
568.14	136.600
568.50	135.900
568.85	135.450
569.20	135.600
569.55	136.300
569.90	136.400
570.25	135.200
570.60	136.600
570.95	135.500
571.30	136.250
571.65	135.350
572.00	134.550
572.35	135.800
572.70	137.550
573.05	135.300
573.40	136.350
573.75	135.600
574.10	135.400
574.45	136.700
574.80	136.650
575.15	137.650
575.50	138.100
575.85	138.000
576.20	136.800
576.55	136.800
576.90	138.350
577.25	138.200
577.60	137.650
577.95	138.050
578.30	139.150
578.65	137.200
579.00	137.450
579.35	138.800
579.70	137.150
580.05	137.100
580.40	137.900
580.74	139.700
581.09	138.800
581.44	139.300
581.79	139.250
582.14	138.450
582.49	139.700
582.84	139.300
583.19	138.450
583.54	137.900
583.89	138.500
584.24	138.750
584.58	138.750
584.93	137.900
585.28	139.750
585.63	139.450
585.98	139.450
586.33	137.450
586.68	138.050
587.03	138.500
587.37	138.250
587.72	137.100
588.07	137.250
588.42	137.050
588.77	137.250
589.12	138.200
589.46	137.750
589.81	137.300
590.16	136.650
590.51	135.900
590.86	137.450
591.21	136.350
591.55	137.150
591.90	137.100
592.25	137.900
592.60	136.900
592.95	136.250
593.29	136.800
593.64	136.800
593.99	137.150
594.34	135.700
594.68	137.700
595.03	137.200
595.38	137.500
595.73	136.200
596.07	134.700
596.42	136.200
596.77	136.400
597.12	136.750
597.46	136.550
597.81	135.800
598.16	136.850
598.51	137.900
598.85	136.750
599.20	136.150
599.55	135.350
599.90	135.700
600.24	136.050
600.59	135.800
600.94	135.950
601.28	136.100
601.63	136.250
601.98	135.350
602.32	135.750
602.67	136.250
603.02	136.550
603.36	135.950
603.71	136.100
604.06	136.500
604.40	135.950
604.75	136.250
605.10	135.700
605.44	137.200
605.79	135.250
606.14	136.000
606.48	136.750
606.83	136.600
607.17	137.200
607.52	139.400
607.87	139.400
608.21	141.450
608.56	144.100
608.90	152.300
609.25	157.300
609.60	159.150
609.94	156.800
610.29	155.000
610.63	150.150
610.98	147.700
611.33	146.000
611.67	144.950
612.02	143.500
612.36	142.700
612.71	142.950
613.05	142.000
613.40	140.800
613.74	139.950
614.09	139.650
614.44	137.850
614.78	137.550
615.13	137.400
615.47	136.950
615.82	138.450
616.16	138.100
616.51	137.450
616.85	136.950
617.20	136.050
617.54	137.400
617.89	136.950
618.23	136.800
618.58	138.600
618.92	136.000
619.27	137.900
619.61	137.350
619.96	137.600
620.30	137.400
620.64	138.350
620.99	138.500
621.33	137.000
621.68	137.950
622.02	138.400
622.37	136.800
622.71	138.050
623.06	137.900
623.40	138.400
623.74	138.550
624.09	137.400
624.43	138.300
624.78	136.350
625.12	135.850
625.46	136.550
625.81	136.650
626.15	137.300
626.50	138.650
626.84	135.850
627.18	137.950
627.53	136.850
627.87	136.400
628.21	136.950
628.56	137.050
628.90	136.150
629.25	136.600
629.59	137.600
629.93	136.900
630.28	137.450
630.62	136.650
630.96	136.400
631.31	135.850
631.65	136.500
631.99	135.800
632.34	135.250
632.68	135.250
633.02	134.650
633.36	135.750
633.71	134.750
634.05	135.250
634.39	135.400
634.74	135.750
635.08	134.350
635.42	134.950
635.76	136.900
636.11	133.850
636.45	137.100
636.79	136.450
637.14	133.950
637.48	134.900
637.82	136.050
638.16	134.850
638.50	135.300
638.85	134.500
639.19	135.550
639.53	136.750
639.87	134.400
640.22	135.150
640.56	134.850
640.90	134.300
641.24	135.300
641.58	135.350
641.93	133.800
642.27	136.150
642.61	136.550
642.95	135.600
643.29	135.700
643.64	135.350
643.98	133.900
644.32	134.850
644.66	134.550
645.00	135.450
645.34	135.800
645.68	135.050
646.03	136.600
646.37	135.800
646.71	134.650
647.05	136.150
647.39	135.150
647.73	135.900
648.07	136.850
648.42	136.700
648.76	135.200
649.10	136.750
649.44	137.150
649.78	134.950
650.12	137.050
650.46	135.250
650.80	136.150
651.14	136.650
651.48	135.400
651.82	135.100
652.16	136.250
652.51	135.600
652.85	134.050
653.19	134.500
653.53	136.100
653.87	134.900
654.21	135.300
654.55	134.850
654.89	135.100
655.23	135.300
655.57	136.350
655.91	135.700
656.25	136.600
656.59	135.050
656.93	135.050
657.27	135.300
657.61	136.800
657.95	134.900
658.29	135.150
658.63	134.550
658.97	135.800
659.31	136.650
659.65	135.350
659.99	135.500
660.33	135.600
660.67	134.450
661.01	135.550
661.35	135.350
661.68	136.250
662.02	134.600
662.36	134.300
662.70	135.100
663.04	135.500
663.38	135.900
663.72	135.050
664.06	135.050
664.40	134.100
664.74	134.400
665.08	135.850
665.42	135.900
665.75	134.000
666.09	135.450
666.43	138.100
666.77	134.500
667.11	134.200
667.45	135.500
667.79	135.950
668.12	134.800
668.46	134.650
668.80	135.050
669.14	135.200
669.48	134.800
669.82	135.400
670.16	136.050
670.49	134.550
670.83	134.500
671.17	134.450
671.51	135.650
671.85	134.750
672.18	134.700
672.52	134.550
672.86	135.500
673.20	135.950
673.54	136.000
673.87	135.750
674.21	135.300
674.55	135.450
674.89	134.950
675.22	135.700
675.56	134.700
675.90	135.350
676.24	135.800
676.57	134.950
676.91	134.950
677.25	134.800
677.59	134.500
677.92	134.350
678.26	133.650
678.60	134.650
678.93	135.150
679.27	134.750
679.61	135.200
679.95	134.100
680.28	135.400
680.62	134.300
680.96	134.400
681.29	135.000
681.63	135.950
681.97	134.100
682.30	134.400
682.64	135.250
682.98	134.800
683.31	135.650
683.65	135.750
683.99	133.550
684.32	134.850
684.66	134.350
685.00	135.100
685.33	134.850
685.67	134.450
686.00	135.300
686.34	134.850
686.68	137.600
687.01	135.100
687.35	134.700
687.68	136.100
688.02	133.850
688.36	134.200
688.69	134.450
689.03	136.000
689.36	134.700
689.70	134.450
690.03	134.450
690.37	134.400
690.71	135.200
691.04	135.650
691.38	135.150
691.71	135.850
692.05	134.450
692.38	134.700
692.72	135.000
693.05	135.100
693.39	134.000
693.72	136.100
694.06	134.000
694.39	134.600
694.73	134.900
695.06	133.400
695.40	134.500
695.73	134.950
696.07	135.450
696.40	135.550
696.74	136.100
697.07	135.350
697.41	133.800
697.74	135.350
698.08	134.900
698.41	135.100
698.74	135.000
699.08	134.400
699.41	135.050
699.75	134.500
700.08	134.050
700.42	134.050
700.75	133.250
701.08	134.950
701.42	135.250
701.75	136.250
702.09	136.500
702.42	138.150
702.75	135.750
703.09	135.300
703.42	135.600
703.75	134.600
704.09	134.650
704.42	135.600
704.76	135.700
705.09	136.450
705.42	135.050
705.76	136.800
706.09	134.450
706.42	136.800
706.76	136.300
707.09	134.500
707.42	135.100
707.76	135.500
708.09	134.350
708.42	134.600
708.75	136.850
709.09	134.000
709.42	134.900
709.75	134.850
710.09	136.600
710.42	135.400
710.75	134.850
711.08	135.500
711.42	135.300
711.75	135.500
712.08	135.500
712.41	134.550
712.75	135.550
713.08	134.750
713.41	135.550
713.74	135.350
714.08	134.600
714.41	134.950
714.74	134.300
715.07	135.950
715.41	134.750
715.74	135.450
716.07	134.250
716.40	134.800
716.73	134.850
717.06	134.400
717.40	133.850
717.73	132.950
718.06	134.700
718.39	135.550
718.72	135.500
719.05	134.500
719.39	135.400
719.72	135.250
720.05	135.550
720.38	134.750
720.71	134.800
721.04	135.700
721.37	135.000
721.71	133.450
722.04	133.050
722.37	134.550
722.70	135.600
723.03	134.700
723.36	134.400
723.69	134.300
724.02	135.500
724.35	134.350
724.68	136.300
725.01	133.800
725.35	134.250
725.68	135.700
726.01	135.200
726.34	135.850
726.67	134.500
727.00	135.150
727.33	135.650
727.66	136.200
727.99	135.000
728.32	134.100
728.65	134.900
728.98	135.500
729.31	134.500
729.64	134.450
729.97	134.350
730.30	134.050
730.63	134.400
730.96	134.550
731.29	133.000
731.62	134.150
731.95	136.450
732.28	136.500
732.61	135.750
732.94	135.500
733.27	134.200
733.60	133.900
733.93	132.550
734.25	133.450
734.58	134.450
734.91	135.350
735.24	134.400
735.57	136.100
735.90	135.500
736.23	135.900
736.56	134.800
736.89	133.950
737.22	135.400
737.55	135.100
737.87	135.750
738.20	134.150
738.53	134.300
738.86	134.350
739.19	135.100
739.52	136.300
739.85	134.050
740.17	134.400
740.50	135.350
740.83	134.500
741.16	134.850
741.49	135.650
741.82	134.350
742.14	134.900
742.47	134.050
742.80	134.700
743.13	134.350
743.46	134.650
743.78	135.200
744.11	134.350
744.44	135.650
744.77	136.250
745.10	135.600
745.42	134.800
745.75	135.100
746.08	135.700
746.41	134.400
746.73	135.350
747.06	136.200
747.39	134.250
747.72	135.100
748.04	134.350
748.37	135.800
748.70	134.900
749.02	135.650
749.35	135.950
749.68	134.850
750.01	134.500
750.33	136.300
750.66	135.050
750.99	136.100
751.31	133.900
751.64	134.350
751.97	133.800
752.29	136.800
752.62	134.550
752.95	134.300
753.27	135.450
753.60	135.350
753.93	135.400
754.25	134.950
754.58	135.400
754.91	135.000
755.23	136.750
755.56	138.300
755.88	136.800
756.21	135.700
756.54	133.950
756.86	134.900
757.19	134.300
757.51	134.700
757.84	134.650
758.17	134.300
758.49	134.250
758.82	134.250
759.14	134.150
759.47	134.400
759.79	135.150
760.12	134.400
760.44	133.400
760.77	135.000
761.09	134.700
761.42	134.550
761.75	135.700
762.07	133.950
762.40	134.050
762.72	134.150
763.05	134.750
763.37	134.800
763.70	134.750
764.02	136.700
764.35	134.650
764.67	134.650
764.99	135.100
765.32	134.400
765.64	134.250
765.97	134.500
766.29	134.500
766.62	134.350
766.94	135.800
767.27	135.700
767.59	134.550
767.91	135.050
768.24	135.400
768.56	135.400
768.89	135.150
769.21	134.200
769.54	134.900
769.86	134.650
770.18	134.250
770.51	134.100
770.83	134.300
771.15	135.300
771.48	134.950
771.80	134.350
772.13	134.600
772.45	134.950
772.77	134.600
773.10	134.200
773.42	135.150
773.74	134.500
774.07	134.050
774.39	135.350
774.71	134.550
775.04	135.100
775.36	135.450
775.68	133.100
776.01	134.100
776.33	133.750
776.65	134.550
776.97	133.850
777.30	136.050
777.62	135.150
777.94	134.400
778.26	134.700
778.59	133.250
778.91	134.200
779.23	134.650
779.55	135.400
779.88	135.000
780.20	134.950
780.52	133.950
780.84	134.050
781.17	134.450
781.49	135.200
781.81	134.750
782.13	134.600
782.45	134.950
782.78	135.050
783.10	133.900
783.42	134.550
783.74	134.050
784.06	134.900
784.39	134.000
784.71	135.850
785.03	135.050
785.35	135.700
785.67	135.500
785.99	134.850
786.31	135.300
786.64	134.450
786.96	134.550
787.28	135.200
787.60	134.150
787.92	134.650
788.24	134.950
788.56	134.100
788.88	136.050
789.20	136.500
789.53	136.150
789.85	136.350
790.17	134.100
790.49	134.700
790.81	134.300
791.13	134.300
791.45	134.400
791.77	134.650
792.09	136.250
792.41	133.850
792.73	133.750
793.05	133.600
793.37	135.500
793.69	134.800
794.01	134.050
794.33	135.700
794.65	135.550
794.97	134.750
795.29	135.400
795.61	135.500
795.93	134.400
796.25	133.300
796.57	134.400
796.89	134.600
797.21	137.150
797.53	135.300
797.85	135.600
798.17	134.300
798.49	134.650
798.81	134.650
799.13	135.350
799.45	135.950
799.77	134.450
800.08	134.550
800.40	135.150
800.72	134.850
801.04	134.750
801.36	134.150
801.68	133.450
802.00	134.750
802.32	135.100
802.64	135.000
802.95	134.800
803.27	135.050
803.59	135.200
803.91	134.950
804.23	133.800
804.55	132.600
804.87	132.600
805.18	134.350
805.50	135.500
805.82	134.200
806.14	135.200
806.46	134.650
806.77	135.100
807.09	135.900
807.41	133.400
807.73	134.050
808.05	134.350
808.36	135.750
808.68	135.600
809.00	136.350
809.32	136.050
809.63	133.900
809.95	135.000
810.27	135.050
810.59	133.300
810.90	133.800
811.22	134.150
811.54	133.900
811.86	135.400
812.17	135.750
812.49	134.750
812.81	133.500
813.12	133.850
813.44	134.650
813.76	134.650
814.08	135.250
814.39	134.350
814.71	134.200
815.03	134.400
815.34	133.750
815.66	134.950
815.98	134.450
816.29	133.950
816.61	134.350
816.92	133.950
817.24	134.000
817.56	134.350
817.87	132.800
818.19	133.850
818.51	134.650
818.82	133.950
819.14	135.350
819.45	133.800
819.77	134.600
820.09	135.250
820.40	135.950
820.72	134.950
821.03	134.200
821.35	135.250
821.66	134.600
821.98	136.350
822.29	134.800
822.61	135.150
822.93	135.500
823.24	135.200
823.56	135.100
823.87	134.800
824.19	135.100
824.50	134.200
824.82	135.650
825.13	135.200
825.45	135.450
825.76	135.650
826.08	135.000
826.39	134.500
826.71	135.600
827.02	134.700
827.33	134.350
827.65	133.750
827.96	135.200
828.28	135.600
828.59	135.250
828.91	134.000
829.22	134.250
829.54	135.200
829.85	135.300
830.16	134.750
830.48	134.750
830.79	134.650
831.11	133.350
831.42	133.750
831.73	135.250
832.05	134.150
832.36	133.950
832.67	134.400
832.99	135.000
833.30	134.200
833.62	134.250
833.93	135.650
834.24	135.400
834.56	135.500
834.87	135.200
835.18	136.300
835.50	134.100
835.81	132.300
836.12	133.700
836.43	134.950
836.75	134.600
837.06	133.700
837.37	133.850
837.69	133.150
838.00	134.800
838.31	134.050
838.62	134.400
838.94	133.950
839.25	133.800
839.56	133.900
839.87	135.350
840.19	135.500
840.50	136.150
840.81	135.150
841.12	133.850
841.44	133.600
841.75	133.550
842.06	134.100
842.37	133.350
842.68	134.600
843.00	134.700
843.31	134.050
843.62	134.600
843.93	134.600
844.24	134.350
844.55	134.400
844.87	134.350
845.18	136.000
845.49	134.450
845.80	135.650
846.11	133.600
846.42	134.200
846.73	134.700
847.05	134.050
847.36	133.000
847.67	134.450
847.98	133.450
848.29	132.850
848.60	133.900
848.91	133.800
849.22	133.350
849.53	134.200
849.84	135.750
850.15	134.600
850.46	133.450
850.78	133.900
851.09	134.400
851.40	135.000
851.71	133.900
852.02	133.500
852.33	133.500
852.64	134.350
852.95	133.750
853.26	133.600
853.57	134.350
853.88	136.400
854.19	134.900
854.50	134.800
854.81	135.450
855.12	134.950
855.43	133.700
855.74	134.850
856.05	134.500
856.35	134.000
856.66	133.100
856.97	134.000
857.28	133.400
857.59	134.900
857.90	134.200
858.21	134.300
858.52	134.350
858.83	133.200
859.14	133.850
859.45	135.200
859.76	134.250
860.06	134.800
860.37	132.700
860.68	134.650
860.99	134.000
861.30	134.100
861.61	133.500
861.92	134.200
862.23	135.050
862.53	135.050
862.84	134.700
863.15	133.900
863.46	135.250
863.77	134.550
864.08	135.050
864.38	134.100
864.69	135.500
865.00	134.800
865.31	135.050
865.61	134.850
865.92	135.250
866.23	134.900
866.54	134.450
866.85	133.950
867.15	133.550
867.46	134.200
867.77	135.250
868.08	134.550
868.38	134.300
868.69	134.400
869.00	134.500
869.30	134.450
869.61	135.300
869.92	135.700
870.23	135.100
870.53	134.900
870.84	134.850
871.15	134.300
871.45	134.400
871.76	134.900
872.07	135.750
872.37	136.000
872.68	134.950
872.99	135.250
873.29	135.550
873.60	134.750
873.91	134.200
874.21	134.300
874.52	134.300
874.82	134.350
875.13	135.650
875.44	133.850
875.74	134.550
876.05	135.850
876.35	134.800
876.66	133.950
876.97	134.750
877.27	134.300
877.58	134.950
877.88	135.350
878.19	135.700
878.49	134.850
878.80	133.800
879.10	134.700
879.41	134.500
879.72	134.400
880.02	134.150
880.33	135.450
880.63	133.700
880.94	134.300
881.24	135.100
881.55	134.050
881.85	134.100
882.16	134.600
882.46	135.550
882.76	135.300
883.07	135.000
883.37	135.200
883.68	135.450
883.98	135.450
884.29	134.400
884.59	134.300
884.90	136.050
885.20	133.700
885.50	134.400
885.81	134.700
886.11	135.500
886.42	134.950
886.72	134.550
887.02	135.550
887.33	134.500
887.63	134.500
887.94	135.300
888.24	135.150
888.54	133.950
888.85	132.700
889.15	135.300
889.45	136.000
889.76	135.750
890.06	135.350
890.36	136.950
890.67	136.700
890.97	134.800
891.27	134.200
891.58	134.100
891.88	133.250
892.18	133.700
892.48	135.700
892.79	134.200
893.09	133.600
893.39	133.000
893.70	135.300
894.00	134.300
894.30	134.150
894.60	135.200
894.91	134.800
895.21	134.400
895.51	134.600
895.81	134.250
896.11	133.800
896.42	134.200
896.72	134.000
897.02	134.350
897.32	133.850
897.62	134.500
897.93	134.100
898.23	134.500
898.53	134.750
898.83	135.150
899.13	134.550
899.43	133.150
899.74	134.150
900.04	134.500
900.34	133.550
900.64	134.200
900.94	135.350
901.24	134.100
901.54	135.600
901.84	135.150
902.15	134.150
902.45	134.250
902.75	134.000
903.05	133.650
903.35	135.150
903.65	134.800
903.95	134.550
904.25	134.250
904.55	135.600
904.85	135.200
905.15	134.300
905.45	134.950
905.75	134.600
906.05	134.900
906.35	133.900
906.65	134.100
906.95	135.150
907.25	133.600
907.55	134.100
907.85	135.200
908.15	134.100
908.45	134.750
908.75	133.150
909.05	133.950
909.35	133.700
909.65	132.800
909.95	135.050
910.25	134.450
910.55	134.350
910.85	137.500
911.15	134.600
911.45	134.600
911.75	134.400
912.05	134.550
912.34	136.650
912.64	134.600
912.94	133.600
913.24	134.650
913.54	135.050
913.84	136.200
914.14	134.400
914.44	133.900
914.73	134.850
915.03	135.050
915.33	134.500
915.63	132.950
915.93	133.900
916.23	133.900
916.52	134.800
916.82	134.650
917.12	134.450
917.42	134.650
917.72	134.300
918.01	135.600
918.31	135.150
918.61	135.400
918.91	134.350
919.21	135.800
919.50	134.450
919.80	133.650
920.10	134.150
920.40	135.150
920.69	134.000
920.99	135.200
921.29	133.650
921.58	135.050
921.88	133.600
922.18	135.800
922.48	134.800
922.77	133.700
923.07	134.500
923.37	136.150
923.66	134.650
923.96	132.800
924.26	134.750
924.55	134.600
924.85	134.650
925.15	135.050
925.44	134.450
925.74	134.150
926.04	135.750
926.33	135.150
926.63	135.150
926.92	134.100
927.22	135.550
927.52	133.750
927.81	134.550
928.11	134.350
928.40	134.900
928.70	133.550
929.00	134.000
929.29	134.450
929.59	133.900
929.88	134.400
930.18	134.150
930.47	134.400
930.77	133.500
931.06	134.150
931.36	134.250
931.65	134.350
931.95	133.700
932.24	133.350
932.54	134.350
932.83	134.100
933.13	134.900
933.42	133.550
933.72	133.000
934.01	135.500
934.31	133.250
934.60	134.850
934.90	133.550
935.19	135.300
935.49	134.150
935.78	135.000
936.07	135.200
936.37	135.700
936.66	135.300
936.96	134.000
937.25	134.150
937.54	134.700
937.84	133.150
938.13	133.250
938.43	133.600
938.72	133.900
939.01	134.450
939.31	133.500
939.60	134.500
939.89	134.200
940.19	134.150
940.48	134.200
940.77	135.100
941.07	135.150
941.36	134.650
941.65	135.000
941.95	135.450
942.24	133.500
942.53	134.250
942.82	133.300
943.12	133.950
943.41	134.700
943.70	134.150
944.00	135.000
944.29	134.150
944.58	134.250
944.87	133.350
945.17	134.550
945.46	135.100
945.75	135.150
946.04	134.700
946.33	134.600
946.63	134.600
946.92	133.600
947.21	134.200
947.50	135.250
947.79	134.600
948.09	134.000
948.38	135.650
948.67	134.100
948.96	133.350
949.25	135.900
949.54	134.250
949.83	134.400
950.13	134.300
950.42	134.350
950.71	134.100
951.00	134.200
951.29	133.450
951.58	134.050
951.87	135.750
952.16	135.050
952.45	133.000
952.75	134.200
953.04	134.200
953.33	135.250
953.62	134.700
953.91	134.700
954.20	134.150
954.49	134.900
954.78	134.050
955.07	133.550
955.36	135.100
955.65	134.550
955.94	133.200
956.23	135.600
956.52	135.050
956.81	134.750
957.10	133.400
957.39	134.150
957.68	134.750
957.97	134.150
958.26	134.200
958.55	134.250
958.84	133.600
959.13	135.100
959.42	136.750
959.71	134.100
960.00	134.150
960.28	133.850
960.57	134.300
960.86	135.250
961.15	135.100
961.44	134.150
961.73	134.350
962.02	134.950
962.31	134.700
962.60	134.700
962.88	134.950
963.17	135.050
963.46	133.750
963.75	134.050
964.04	134.350
964.33	136.250
964.61	134.250
964.90	132.900
965.19	134.900
965.48	134.100
965.77	135.350
966.05	134.700
966.34	134.350
966.63	134.400
966.92	135.650
967.21	136.350
967.49	135.100
967.78	135.850
968.07	134.500
968.36	135.550
968.64	135.150
968.93	134.950
969.22	133.450
969.51	133.750
969.79	134.250
970.08	134.800
970.37	136.200
970.65	135.500
970.94	134.150
971.23	133.750
971.51	133.000
971.80	133.950
972.09	133.600
972.37	134.050
972.66	134.200
972.95	135.100
973.23	134.750
973.52	133.400
973.81	134.400
974.09	134.550
974.38	134.100
974.66	134.200
974.95	133.800
975.24	133.800
975.52	135.000
975.81	133.300
976.09	133.800
976.38	134.500
976.66	135.850
976.95	134.550
977.24	132.950
977.52	133.550
977.81	134.600
978.09	134.000
978.38	134.500
978.66	134.350
978.95	134.850
979.23	135.200
979.52	133.850
979.80	133.150
980.09	133.600
980.37	134.050
980.66	133.600
980.94	134.850
981.23	135.350
981.51	133.500
981.80	133.300
982.08	133.500
982.36	135.900
982.65	136.650
982.93	135.150
983.22	134.000
983.50	135.400
983.78	134.400
984.07	134.300
984.35	135.550
984.64	135.200
984.92	134.650
985.20	134.150
985.49	134.850
985.77	134.500
986.05	135.100
986.34	134.900
986.62	132.900
986.91	134.650
987.19	134.850
987.47	133.550
987.75	135.350
988.04	134.150
988.32	136.100
988.60	134.200
988.89	134.150
989.17	132.850
989.45	134.700
989.74	135.150
990.02	133.800
990.30	134.050
990.58	133.400
990.87	134.900
991.15	133.700
991.43	135.200
991.71	135.050
991.99	135.000
992.28	134.850
992.56	135.650
992.84	134.900
993.12	134.600
993.40	135.200
993.69	135.550
993.97	133.450
994.25	135.900
994.53	135.000
994.81	135.900
995.09	134.650
995.38	134.200
995.66	134.300
995.94	136.550
996.22	134.800
996.50	135.450
996.78	134.000
997.06	133.750
997.34	133.900
997.63	134.200
997.91	134.550
998.19	135.050
998.47	134.250
998.75	133.400
999.03	133.200
999.31	134.100
999.59	135.000
999.87	134.150
1000.15	135.750
1000.43	135.200
1000.71	133.850
1000.99	134.050
1001.27	134.450
1001.55	134.950
1001.83	134.550
1002.11	134.050
1002.39	134.750
1002.67	134.350
1002.95	135.150
1003.23	134.250
1003.51	133.400
1003.79	134.650
1004.07	134.050
1004.35	134.750
1004.63	134.500
1004.91	134.650
1005.19	134.050
1005.46	134.300
1005.74	134.050
1006.02	134.400
1006.30	133.750
1006.58	134.850
1006.86	135.250
1007.14	134.600
1007.42	134.550
1007.70	133.700
1007.97	134.850
1008.25	133.150
1008.53	134.750
1008.81	134.100
1009.09	133.550
1009.37	133.600
1009.64	132.950
1009.92	133.350
1010.20	133.350
1010.48	133.850
1010.76	134.300
1011.03	134.400
1011.31	134.800
1011.59	135.250
1011.87	134.250
1012.14	134.600
1012.42	135.050
1012.70	132.950
1012.98	133.350
1013.25	133.400
1013.53	133.350
1013.81	134.250
1014.08	133.800
1014.36	133.150
1014.64	134.350
1014.92	133.700
1015.19	133.100
1015.47	133.950
1015.75	135.000
1016.02	135.350
1016.30	133.650
1016.58	135.100
1016.85	133.750
>>>>>End Spectral Data<<<<<
