OOIBase32 Version 2.0.6.5 Data File
++++++++++++++++++++++++++++++++++++
Date: 04-16-2021, 17:10:41
User: Valued Ocean Optics Customer
Spectrometer Serial Number: USB2E5007
Spectrometer Channel: Master
Integration Time (msec): 45
Spectra Averaged: 20
Boxcar Smoothing: 0
Correct for Electrical Dark: Disabled
Time Normalized: Disabled
Dual-beam Reference: Disabled
Reference Channel: Master
Temperature: Not acquired
Spectrometer Type: S2000
ADC Type: USB2000
Number of Pixels in File: 2048
Graph Title: 
>>>>>Begin Spectral Data<<<<<
340.15	0.000
340.52	129.650
340.90	131.250
341.27	131.600
341.64	133.350
342.01	137.300
342.38	137.700
342.76	139.500
343.13	141.400
343.50	140.550
343.87	141.150
344.24	140.800
344.61	141.150
344.98	140.250
345.36	141.050
345.73	141.200
346.10	139.600
346.47	141.300
346.84	139.600
347.21	139.150
347.58	140.600
347.96	143.250
348.33	140.750
348.70	140.250
349.07	141.400
349.44	140.500
349.81	143.500
350.18	142.000
350.55	141.700
350.92	141.400
351.30	142.100
351.67	141.800
352.04	141.100
352.41	141.400
352.78	143.500
353.15	143.150
353.52	142.500
353.89	144.850
354.26	143.150
354.63	142.150
355.00	143.900
355.37	144.500
355.75	142.350
356.12	141.500
356.49	143.550
356.86	143.700
357.23	143.100
357.60	143.350
357.97	142.200
358.34	143.000
358.71	143.750
359.08	144.000
359.45	143.000
359.82	144.000
360.19	144.750
360.56	143.150
360.93	144.000
361.30	143.900
361.67	143.800
362.04	145.100
362.41	143.900
362.78	144.100
363.15	145.050
363.52	144.600
363.89	144.700
364.26	143.700
364.63	143.250
365.00	145.200
365.37	145.650
365.74	145.150
366.11	144.350
366.48	145.350
366.85	144.650
367.22	144.150
367.59	146.050
367.96	144.750
368.33	143.950
368.70	145.450
369.07	145.400
369.44	145.550
369.81	145.700
370.18	146.200
370.55	144.250
370.92	145.350
371.29	145.950
371.66	146.450
372.03	146.150
372.40	144.500
372.77	145.950
373.13	145.150
373.50	146.250
373.87	144.950
374.24	146.500
374.61	146.000
374.98	146.600
375.35	146.450
375.72	146.400
376.09	147.850
376.46	146.150
376.83	145.200
377.20	146.300
377.56	145.300
377.93	145.850
378.30	147.300
378.67	146.900
379.04	145.900
379.41	146.500
379.78	146.800
380.15	147.350
380.51	146.450
380.88	146.700
381.25	145.450
381.62	146.450
381.99	146.750
382.36	146.600
382.73	146.650
383.09	148.250
383.46	146.100
383.83	146.150
384.20	146.950
384.57	146.900
384.94	146.850
385.31	145.600
385.67	146.000
386.04	146.650
386.41	146.350
386.78	147.200
387.15	147.950
387.51	148.000
387.88	147.450
388.25	146.950
388.62	146.850
388.99	147.400
389.36	148.400
389.72	147.300
390.09	150.350
390.46	147.700
390.83	147.200
391.19	147.000
391.56	146.850
391.93	147.400
392.30	148.600
392.67	148.950
393.03	148.050
393.40	147.500
393.77	147.900
394.14	148.150
394.50	148.550
394.87	148.550
395.24	148.450
395.61	148.000
395.97	148.300
396.34	147.150
396.71	147.050
397.08	150.100
397.44	148.750
397.81	148.250
398.18	148.600
398.55	148.700
398.91	149.150
399.28	148.750
399.65	148.800
400.01	150.050
400.38	148.850
400.75	147.750
401.12	149.500
401.48	147.950
401.85	149.300
402.22	149.500
402.58	149.000
402.95	151.550
403.32	149.850
403.68	147.950
404.05	149.200
404.42	149.600
404.78	149.800
405.15	150.000
405.52	150.050
405.88	149.900
406.25	149.900
406.62	150.600
406.98	149.550
407.35	149.350
407.72	150.200
408.08	150.700
408.45	150.250
408.82	151.850
409.18	150.400
409.55	150.900
409.91	150.400
410.28	150.800
410.65	150.600
411.01	151.750
411.38	149.750
411.75	150.900
412.11	152.500
412.48	153.500
412.84	154.600
413.21	152.100
413.58	152.300
413.94	154.650
414.31	154.700
414.67	155.200
415.04	154.400
415.41	156.400
415.77	156.850
416.14	156.100
416.50	156.450
416.87	157.250
417.23	157.250
417.60	159.300
417.97	159.200
418.33	161.600
418.70	162.100
419.06	162.750
419.43	162.500
419.79	164.650
420.16	164.550
420.52	167.350
420.89	169.350
421.25	170.650
421.62	172.500
421.98	172.800
422.35	175.550
422.72	175.500
423.08	178.200
423.45	183.250
423.81	183.750
424.18	187.450
424.54	187.000
424.91	190.950
425.27	195.900
425.64	199.050
426.00	202.750
426.37	206.550
426.73	209.000
427.09	214.900
427.46	220.700
427.82	223.850
428.19	227.100
428.55	232.950
428.92	240.650
429.28	247.450
429.65	253.150
430.01	268.950
430.38	268.800
430.74	273.000
431.11	279.500
431.47	302.050
431.83	299.650
432.20	317.500
432.56	322.950
432.93	340.250
433.29	344.650
433.66	353.850
434.02	380.000
434.38	370.700
434.75	401.650
435.11	398.500
435.48	425.400
435.84	429.150
436.20	461.800
436.57	462.250
436.93	484.350
437.30	515.500
437.66	510.600
438.02	563.900
438.39	581.500
438.75	590.500
439.12	648.500
439.48	662.200
439.84	679.800
440.21	709.000
440.57	724.300
440.93	826.650
441.30	832.000
441.66	851.300
442.02	911.850
442.39	915.950
442.75	965.250
443.11	980.500
443.48	1037.500
443.84	1077.250
444.20	1092.550
444.57	1227.500
444.93	1257.250
445.29	1363.650
445.66	1347.250
446.02	1414.950
446.38	1554.100
446.75	1584.550
447.11	1658.500
447.47	1627.100
447.84	1693.950
448.20	1831.800
448.56	1921.950
448.92	1979.800
449.29	1993.200
449.65	2022.400
450.01	2101.050
450.37	2064.750
450.74	2163.050
451.10	2243.300
451.46	2307.600
451.83	2206.850
452.19	2256.300
452.55	2164.450
452.91	2295.850
453.28	2333.300
453.64	2371.550
454.00	2334.400
454.36	2132.600
454.72	2293.600
455.09	2200.550
455.45	2216.700
455.81	2153.150
456.17	2095.400
456.54	2055.500
456.90	2038.600
457.26	1898.400
457.62	1903.900
457.98	1888.850
458.35	1859.000
458.71	1739.350
459.07	1707.900
459.43	1610.550
459.79	1596.250
460.16	1487.550
460.52	1446.350
460.88	1430.000
461.24	1423.250
461.60	1387.750
461.96	1387.650
462.33	1308.250
462.69	1254.000
463.05	1207.850
463.41	1212.400
463.77	1172.500
464.13	1108.850
464.49	1134.300
464.86	1094.150
465.22	1064.050
465.58	1045.950
465.94	1060.550
466.30	1003.550
466.66	1028.650
467.02	1013.000
467.38	977.050
467.75	948.550
468.11	925.800
468.47	908.450
468.83	908.050
469.19	896.150
469.55	883.800
469.91	844.600
470.27	796.000
470.63	813.050
470.99	797.950
471.35	768.150
471.72	766.450
472.08	752.150
472.44	726.500
472.80	697.850
473.16	701.200
473.52	668.300
473.88	650.800
474.24	638.950
474.60	627.800
474.96	610.000
475.32	595.750
475.68	574.850
476.04	575.750
476.40	554.450
476.76	547.100
477.12	528.150
477.48	517.100
477.84	513.100
478.20	500.000
478.56	489.600
478.92	477.050
479.28	472.150
479.64	460.250
480.00	455.000
480.36	448.750
480.72	435.900
481.08	429.700
481.44	423.750
481.80	414.850
482.16	408.800
482.52	402.950
482.88	395.600
483.24	393.500
483.60	390.250
483.96	381.300
484.32	375.850
484.68	366.100
485.04	365.600
485.40	360.250
485.76	352.050
486.12	347.750
486.48	341.300
486.83	333.750
487.19	328.250
487.55	325.650
487.91	319.200
488.27	313.850
488.63	309.300
488.99	301.950
489.35	300.350
489.71	291.700
490.07	286.400
490.43	282.600
490.78	276.950
491.14	274.400
491.50	268.850
491.86	263.550
492.22	260.600
492.58	256.050
492.94	250.550
493.30	247.750
493.65	243.200
494.01	241.200
494.37	237.250
494.73	233.050
495.09	229.650
495.45	226.900
495.80	224.750
496.16	222.650
496.52	219.750
496.88	214.450
497.24	213.150
497.60	212.500
497.95	208.250
498.31	206.500
498.67	205.400
499.03	203.400
499.39	200.100
499.74	199.500
500.10	197.900
500.46	196.400
500.82	193.550
501.18	193.450
501.53	191.250
501.89	188.900
502.25	189.000
502.61	185.850
502.96	186.900
503.32	183.900
503.68	184.600
504.04	183.350
504.40	182.500
504.75	180.900
505.11	179.000
505.47	179.100
505.82	179.650
506.18	175.650
506.54	174.100
506.90	173.300
507.25	174.400
507.61	172.900
507.97	172.250
508.33	172.350
508.68	171.850
509.04	169.850
509.40	169.650
509.75	167.050
510.11	169.650
510.47	168.450
510.82	167.400
511.18	164.300
511.54	164.600
511.89	165.750
512.25	163.500
512.61	163.600
512.96	163.650
513.32	162.000
513.68	163.100
514.03	161.950
514.39	163.500
514.75	160.750
515.10	162.800
515.46	159.550
515.82	159.100
516.17	159.250
516.53	159.550
516.89	159.500
517.24	157.850
517.60	158.200
517.95	157.800
518.31	158.400
518.67	157.650
519.02	157.550
519.38	157.550
519.73	155.200
520.09	156.950
520.45	155.700
520.80	156.000
521.16	156.700
521.51	154.750
521.87	154.450
522.22	155.550
522.58	156.200
522.94	155.550
523.29	153.350
523.65	155.250
524.00	155.350
524.36	154.550
524.71	153.900
525.07	153.100
525.42	152.300
525.78	153.150
526.14	151.750
526.49	153.400
526.85	152.550
527.20	153.350
527.56	153.450
527.91	153.050
528.27	152.550
528.62	151.200
528.98	150.850
529.33	151.650
529.69	151.150
530.04	151.150
530.40	151.750
530.75	152.050
531.11	152.600
531.46	151.900
531.81	150.650
532.17	150.900
532.52	149.150
532.88	151.000
533.23	149.450
533.59	151.950
533.94	149.800
534.30	150.350
534.65	149.200
535.01	149.850
535.36	150.900
535.71	149.100
536.07	149.450
536.42	150.800
536.78	150.000
537.13	149.850
537.48	151.400
537.84	152.100
538.19	152.500
538.55	152.450
538.90	153.950
539.25	156.200
539.61	157.100
539.96	158.250
540.32	159.050
540.67	155.900
541.02	156.750
541.38	154.800
541.73	155.350
542.08	155.100
542.44	155.100
542.79	154.800
543.15	153.950
543.50	157.000
543.85	161.250
544.21	160.200
544.56	159.400
544.91	159.450
545.27	155.050
545.62	153.650
545.97	153.950
546.32	153.400
546.68	152.450
547.03	151.300
547.38	151.900
547.74	151.600
548.09	150.450
548.44	149.250
548.80	150.100
549.15	148.600
549.50	149.450
549.85	150.350
550.21	149.500
550.56	149.550
550.91	149.450
551.26	148.050
551.62	149.550
551.97	149.200
552.32	147.100
552.67	146.750
553.03	147.100
553.38	147.750
553.73	148.450
554.08	147.900
554.44	145.700
554.79	147.400
555.14	148.100
555.49	147.350
555.85	147.300
556.20	146.550
556.55	147.200
556.90	146.550
557.25	146.250
557.61	146.500
557.96	147.450
558.31	146.400
558.66	147.100
559.01	147.750
559.36	147.050
559.72	146.500
560.07	146.100
560.42	146.700
560.77	147.850
561.12	148.100
561.47	146.800
561.83	145.850
562.18	146.400
562.53	145.800
562.88	146.100
563.23	146.800
563.58	147.200
563.93	146.500
564.28	148.450
564.64	145.950
564.99	146.450
565.34	146.250
565.69	148.300
566.04	146.500
566.39	146.050
566.74	147.100
567.09	147.750
567.44	147.250
567.79	145.950
568.14	146.850
568.50	146.300
568.85	145.100
569.20	144.850
569.55	146.600
569.90	146.200
570.25	144.950
570.60	145.800
570.95	146.450
571.30	146.700
571.65	145.550
572.00	145.550
572.35	146.750
572.70	146.750
573.05	145.400
573.40	146.150
573.75	146.650
574.10	146.350
574.45	145.850
574.80	146.650
575.15	147.700
575.50	147.100
575.85	145.700
576.20	146.450
576.55	146.050
576.90	146.750
577.25	147.800
577.60	147.150
577.95	147.050
578.30	146.850
578.65	146.400
579.00	146.150
579.35	147.850
579.70	146.650
580.05	145.750
580.40	147.300
580.74	146.850
581.09	147.050
581.44	146.500
581.79	148.400
582.14	147.850
582.49	146.300
582.84	147.500
583.19	145.200
583.54	146.950
583.89	147.650
584.24	144.750
584.58	146.600
584.93	146.850
585.28	147.900
585.63	147.350
585.98	147.000
586.33	147.250
586.68	147.050
587.03	148.250
587.37	146.200
587.72	145.400
588.07	145.050
588.42	146.250
588.77	144.650
589.12	146.850
589.46	145.950
589.81	147.450
590.16	144.900
590.51	146.050
590.86	146.250
591.21	146.700
591.55	147.100
591.90	146.700
592.25	146.100
592.60	145.700
592.95	144.700
593.29	145.050
593.64	145.850
593.99	146.150
594.34	146.200
594.68	146.050
595.03	145.850
595.38	144.650
595.73	144.900
596.07	144.500
596.42	145.100
596.77	144.200
597.12	145.450
597.46	145.400
597.81	144.650
598.16	145.650
598.51	146.750
598.85	145.800
599.20	144.000
599.55	144.300
599.90	144.250
600.24	144.250
600.59	144.250
600.94	144.550
601.28	145.300
601.63	145.000
601.98	143.550
602.32	144.000
602.67	144.650
603.02	146.450
603.36	146.150
603.71	145.050
604.06	145.550
604.40	145.300
604.75	147.050
605.10	145.300
605.44	145.950
605.79	145.100
606.14	145.500
606.48	145.650
606.83	145.300
607.17	146.400
607.52	145.900
607.87	145.250
608.21	147.100
608.56	149.350
608.90	152.300
609.25	155.600
609.60	156.300
609.94	154.200
610.29	153.750
610.63	151.250
610.98	150.150
611.33	150.150
611.67	150.350
612.02	148.200
612.36	147.800
612.71	147.850
613.05	147.650
613.40	146.400
613.74	145.650
614.09	146.750
614.44	145.600
614.78	144.900
615.13	145.900
615.47	145.500
615.82	145.700
616.16	144.500
616.51	145.700
616.85	145.300
617.20	144.500
617.54	146.850
617.89	145.950
618.23	143.950
618.58	144.750
618.92	145.100
619.27	145.650
619.61	145.500
619.96	145.450
620.30	145.400
620.64	145.000
620.99	145.250
621.33	145.050
621.68	145.650
622.02	146.900
622.37	145.800
622.71	144.550
623.06	145.200
623.40	144.150
623.74	144.800
624.09	145.550
624.43	144.200
624.78	144.150
625.12	144.200
625.46	144.400
625.81	143.350
626.15	144.900
626.50	144.750
626.84	144.350
627.18	146.050
627.53	145.600
627.87	145.150
628.21	144.250
628.56	145.400
628.90	145.000
629.25	144.450
629.59	143.750
629.93	145.350
630.28	145.250
630.62	144.550
630.96	145.700
631.31	144.500
631.65	145.100
631.99	144.350
632.34	144.200
632.68	144.250
633.02	142.950
633.36	144.900
633.71	144.750
634.05	144.050
634.39	144.150
634.74	143.300
635.08	143.500
635.42	142.600
635.76	143.700
636.11	143.350
636.45	147.050
636.79	144.350
637.14	143.550
637.48	144.300
637.82	143.750
638.16	143.650
638.50	143.700
638.85	143.500
639.19	144.700
639.53	145.450
639.87	144.100
640.22	143.900
640.56	143.100
640.90	143.550
641.24	143.750
641.58	142.750
641.93	142.800
642.27	143.700
642.61	144.000
642.95	144.500
643.29	143.050
643.64	143.950
643.98	143.800
644.32	143.700
644.66	143.800
645.00	142.850
645.34	144.500
645.68	144.550
646.03	145.350
646.37	143.800
646.71	143.800
647.05	145.900
647.39	143.500
647.73	144.750
648.07	145.000
648.42	145.200
648.76	144.800
649.10	143.600
649.44	145.800
649.78	143.550
650.12	143.750
650.46	143.550
650.80	143.800
651.14	145.600
651.48	142.900
651.82	142.900
652.16	144.750
652.51	143.200
652.85	142.350
653.19	143.850
653.53	144.750
653.87	143.950
654.21	144.150
654.55	142.550
654.89	142.800
655.23	143.950
655.57	144.250
655.91	144.450
656.25	144.150
656.59	143.600
656.93	142.700
657.27	142.650
657.61	144.200
657.95	143.900
658.29	143.400
658.63	143.700
658.97	144.600
659.31	144.400
659.65	143.250
659.99	144.400
660.33	144.300
660.67	143.500
661.01	143.050
661.35	143.100
661.68	144.350
662.02	142.000
662.36	142.850
662.70	143.550
663.04	143.700
663.38	144.800
663.72	144.150
664.06	144.800
664.40	143.500
664.74	144.200
665.08	144.650
665.42	145.300
665.75	143.050
666.09	143.000
666.43	146.650
666.77	144.050
667.11	142.300
667.45	144.050
667.79	143.900
668.12	142.950
668.46	143.250
668.80	142.700
669.14	143.100
669.48	144.450
669.82	143.650
670.16	145.150
670.49	142.550
670.83	143.550
671.17	141.800
671.51	142.900
671.85	144.100
672.18	143.200
672.52	142.000
672.86	143.700
673.20	142.000
673.54	144.050
673.87	143.500
674.21	143.850
674.55	143.100
674.89	143.650
675.22	143.850
675.56	144.400
675.90	145.100
676.24	142.950
676.57	142.800
676.91	144.550
677.25	142.950
677.59	143.600
677.92	143.100
678.26	142.850
678.60	143.500
678.93	144.100
679.27	143.800
679.61	143.450
679.95	143.450
680.28	143.350
680.62	142.950
680.96	143.950
681.29	143.000
681.63	143.450
681.97	142.650
682.30	143.050
682.64	143.150
682.98	143.850
683.31	144.700
683.65	144.850
683.99	142.600
684.32	142.600
684.66	143.400
685.00	143.200
685.33	142.900
685.67	143.400
686.00	143.600
686.34	142.700
686.68	145.150
687.01	142.550
687.35	142.200
687.68	144.900
688.02	143.700
688.36	145.000
688.69	143.450
689.03	143.750
689.36	144.550
689.70	142.850
690.03	142.950
690.37	142.950
690.71	143.250
691.04	143.250
691.38	142.900
691.71	143.400
692.05	143.300
692.38	144.250
692.72	143.150
693.05	143.700
693.39	143.650
693.72	144.250
694.06	142.300
694.39	142.200
694.73	142.750
695.06	143.000
695.40	142.650
695.73	142.550
696.07	144.850
696.40	143.350
696.74	144.700
697.07	144.050
697.41	143.200
697.74	144.550
698.08	143.200
698.41	142.850
698.74	143.700
699.08	142.150
699.41	143.800
699.75	141.700
700.08	141.700
700.42	141.500
700.75	142.450
701.08	143.050
701.42	143.700
701.75	144.150
702.09	145.100
702.42	146.100
702.75	144.100
703.09	143.000
703.42	142.850
703.75	143.150
704.09	142.450
704.42	143.600
704.76	143.350
705.09	143.600
705.42	142.400
705.76	144.150
706.09	142.150
706.42	144.200
706.76	143.050
707.09	142.750
707.42	143.550
707.76	143.450
708.09	142.350
708.42	143.700
708.75	144.650
709.09	142.050
709.42	142.500
709.75	142.650
710.09	143.900
710.42	143.750
710.75	142.000
711.08	143.400
711.42	144.450
711.75	143.250
712.08	143.000
712.41	144.200
712.75	144.000
713.08	143.000
713.41	144.100
713.74	142.300
714.08	144.250
714.41	143.000
714.74	142.050
715.07	143.450
715.41	142.050
715.74	142.950
716.07	142.200
716.40	144.000
716.73	144.450
717.06	143.500
717.40	143.200
717.73	142.000
718.06	142.600
718.39	144.250
718.72	143.450
719.05	142.100
719.39	142.150
719.72	143.100
720.05	142.800
720.38	142.800
720.71	141.850
721.04	143.550
721.37	143.000
721.71	142.850
722.04	141.650
722.37	142.950
722.70	143.650
723.03	143.650
723.36	142.450
723.69	141.750
724.02	142.900
724.35	142.300
724.68	143.800
725.01	142.000
725.35	143.150
725.68	144.150
726.01	142.950
726.34	144.600
726.67	143.300
727.00	142.600
727.33	142.600
727.66	143.300
727.99	142.500
728.32	142.300
728.65	142.900
728.98	142.500
729.31	142.900
729.64	142.350
729.97	141.600
730.30	142.350
730.63	143.400
730.96	142.900
731.29	142.400
731.62	143.050
731.95	144.150
732.28	144.700
732.61	142.900
732.94	142.900
733.27	142.600
733.60	142.900
733.93	142.050
734.25	143.600
734.58	142.850
734.91	142.500
735.24	142.300
735.57	144.100
735.90	143.900
736.23	144.200
736.56	142.700
736.89	142.350
737.22	142.650
737.55	142.800
737.87	144.050
738.20	142.450
738.53	143.400
738.86	142.750
739.19	142.700
739.52	143.550
739.85	142.600
740.17	142.650
740.50	143.100
740.83	143.500
741.16	141.950
741.49	143.400
741.82	143.750
742.14	144.200
742.47	142.700
742.80	142.650
743.13	142.050
743.46	142.850
743.78	143.250
744.11	141.850
744.44	143.700
744.77	144.050
745.10	143.150
745.42	142.900
745.75	142.350
746.08	144.250
746.41	142.350
746.73	142.150
747.06	144.100
747.39	141.750
747.72	142.350
748.04	143.350
748.37	143.300
748.70	142.750
749.02	142.600
749.35	143.500
749.68	142.350
750.01	143.200
750.33	143.650
750.66	142.750
750.99	143.800
751.31	142.050
751.64	142.200
751.97	141.800
752.29	144.750
752.62	143.200
752.95	142.700
753.27	143.600
753.60	144.000
753.93	143.700
754.25	142.550
754.58	143.450
754.91	142.900
755.23	143.550
755.56	147.800
755.88	143.400
756.21	144.150
756.54	142.000
756.86	142.600
757.19	142.000
757.51	141.350
757.84	142.450
758.17	142.900
758.49	142.950
758.82	141.800
759.14	142.700
759.47	142.400
759.79	141.950
760.12	141.350
760.44	141.050
760.77	142.800
761.09	143.050
761.42	143.050
761.75	142.900
762.07	142.250
762.40	141.750
762.72	142.400
763.05	143.550
763.37	143.500
763.70	142.500
764.02	143.500
764.35	142.300
764.67	142.000
764.99	144.000
765.32	141.600
765.64	143.400
765.97	142.300
766.29	143.100
766.62	142.150
766.94	144.850
767.27	142.800
767.59	141.700
767.91	142.600
768.24	143.050
768.56	142.100
768.89	142.550
769.21	142.300
769.54	141.900
769.86	142.300
770.18	142.000
770.51	141.750
770.83	142.500
771.15	141.450
771.48	142.700
771.80	142.250
772.13	143.250
772.45	142.900
772.77	143.000
773.10	141.750
773.42	143.000
773.74	142.500
774.07	142.700
774.39	143.550
774.71	141.050
775.04	142.500
775.36	142.050
775.68	142.550
776.01	141.450
776.33	142.200
776.65	142.400
776.97	141.550
777.30	143.700
777.62	143.200
777.94	143.700
778.26	142.350
778.59	141.300
778.91	141.100
779.23	143.300
779.55	143.500
779.88	143.150
780.20	143.500
780.52	141.850
780.84	141.100
781.17	142.500
781.49	142.350
781.81	142.950
782.13	142.550
782.45	142.950
782.78	143.550
783.10	143.850
783.42	143.500
783.74	141.500
784.06	143.100
784.39	141.650
784.71	143.250
785.03	144.100
785.35	144.300
785.67	143.300
785.99	141.950
786.31	142.900
786.64	143.050
786.96	142.750
787.28	142.600
787.60	141.650
787.92	142.400
788.24	142.350
788.56	140.850
788.88	142.600
789.20	147.100
789.53	143.950
789.85	143.250
790.17	142.150
790.49	142.300
790.81	141.950
791.13	143.200
791.45	144.100
791.77	142.350
792.09	142.600
792.41	143.100
792.73	142.700
793.05	142.400
793.37	144.000
793.69	142.750
794.01	142.650
794.33	143.900
794.65	142.100
794.97	142.300
795.29	142.600
795.61	141.900
795.93	142.700
796.25	142.050
796.57	143.550
796.89	142.550
797.21	143.150
797.53	141.800
797.85	143.200
798.17	142.500
798.49	142.050
798.81	142.400
799.13	142.700
799.45	143.850
799.77	142.600
800.08	143.350
800.40	142.100
800.72	142.050
801.04	142.250
801.36	142.200
801.68	140.550
802.00	141.200
802.32	142.550
802.64	142.250
802.95	142.550
803.27	142.500
803.59	144.450
803.91	142.900
804.23	142.400
804.55	142.150
804.87	143.200
805.18	142.900
805.50	142.850
805.82	141.750
806.14	142.450
806.46	142.600
806.77	143.150
807.09	143.300
807.41	141.000
807.73	141.450
808.05	142.500
808.36	142.450
808.68	142.400
809.00	142.950
809.32	143.500
809.63	141.750
809.95	143.200
810.27	142.450
810.59	141.300
810.90	141.950
811.22	141.700
811.54	141.300
811.86	141.950
812.17	143.250
812.49	142.250
812.81	142.400
813.12	142.750
813.44	141.550
813.76	141.450
814.08	142.900
814.39	142.350
814.71	141.650
815.03	142.500
815.34	142.600
815.66	141.700
815.98	142.950
816.29	141.700
816.61	142.350
816.92	142.950
817.24	141.750
817.56	142.100
817.87	141.750
818.19	141.950
818.51	142.700
818.82	142.100
819.14	143.200
819.45	141.850
819.77	141.350
820.09	143.850
820.40	142.200
820.72	141.550
821.03	142.000
821.35	141.800
821.66	142.050
821.98	142.950
822.29	142.800
822.61	142.650
822.93	141.400
823.24	143.400
823.56	142.400
823.87	142.100
824.19	141.950
824.50	142.450
824.82	142.550
825.13	142.350
825.45	141.050
825.76	142.950
826.08	142.300
826.39	141.750
826.71	141.950
827.02	142.200
827.33	141.950
827.65	141.800
827.96	141.300
828.28	141.850
828.59	142.900
828.91	142.200
829.22	141.200
829.54	141.850
829.85	143.500
830.16	141.950
830.48	142.700
830.79	142.400
831.11	141.850
831.42	141.550
831.73	142.500
832.05	141.550
832.36	142.050
832.67	142.900
832.99	141.700
833.30	143.100
833.62	142.050
833.93	141.850
834.24	141.850
834.56	141.500
834.87	141.800
835.18	143.300
835.50	142.650
835.81	140.800
836.12	142.000
836.43	140.900
836.75	141.000
837.06	141.350
837.37	142.200
837.69	141.700
838.00	141.750
838.31	141.550
838.62	141.750
838.94	142.250
839.25	142.400
839.56	141.450
839.87	142.450
840.19	142.300
840.50	143.550
840.81	142.050
841.12	142.200
841.44	142.700
841.75	142.800
842.06	142.400
842.37	141.700
842.68	141.700
843.00	143.100
843.31	141.850
843.62	142.650
843.93	142.100
844.24	143.100
844.55	141.200
844.87	142.650
845.18	143.900
845.49	142.350
845.80	143.400
846.11	143.150
846.42	142.050
846.73	142.700
847.05	141.650
847.36	141.350
847.67	142.200
847.98	142.700
848.29	142.150
848.60	143.550
848.91	142.700
849.22	141.600
849.53	142.100
849.84	143.050
850.15	143.050
850.46	142.400
850.78	142.800
851.09	141.050
851.40	141.450
851.71	142.700
852.02	141.450
852.33	140.850
852.64	142.050
852.95	141.400
853.26	141.800
853.57	142.350
853.88	144.350
854.19	142.100
854.50	142.350
854.81	143.200
855.12	142.800
855.43	141.600
855.74	141.750
856.05	142.300
856.35	142.350
856.66	141.900
856.97	142.350
857.28	141.750
857.59	143.150
857.90	141.750
858.21	140.650
858.52	141.950
858.83	141.550
859.14	141.950
859.45	141.850
859.76	142.350
860.06	143.550
860.37	140.950
860.68	141.550
860.99	141.450
861.30	140.050
861.61	141.600
861.92	141.650
862.23	141.500
862.53	142.150
862.84	141.350
863.15	142.200
863.46	142.350
863.77	141.300
864.08	142.350
864.38	142.450
864.69	142.350
865.00	142.500
865.31	143.350
865.61	141.450
865.92	143.750
866.23	142.650
866.54	140.400
866.85	142.500
867.15	141.150
867.46	142.050
867.77	142.800
868.08	142.700
868.38	142.050
868.69	141.650
869.00	144.300
869.30	142.900
869.61	142.000
869.92	143.950
870.23	141.400
870.53	141.450
870.84	141.600
871.15	141.450
871.45	142.900
871.76	143.000
872.07	143.350
872.37	143.750
872.68	141.300
872.99	141.200
873.29	142.650
873.60	141.500
873.91	142.300
874.21	141.250
874.52	141.400
874.82	143.300
875.13	143.400
875.44	142.300
875.74	142.150
876.05	143.100
876.35	142.000
876.66	142.450
876.97	142.750
877.27	141.350
877.58	142.250
877.88	143.150
878.19	142.800
878.49	141.550
878.80	142.150
879.10	143.100
879.41	142.000
879.72	142.050
880.02	142.400
880.33	143.300
880.63	141.500
880.94	143.100
881.24	141.800
881.55	141.400
881.85	141.150
882.16	142.400
882.46	140.950
882.76	142.950
883.07	143.600
883.37	143.800
883.68	142.000
883.98	142.000
884.29	141.850
884.59	142.850
884.90	144.300
885.20	142.400
885.50	142.850
885.81	141.550
886.11	142.900
886.42	144.050
886.72	142.400
887.02	141.700
887.33	142.450
887.63	142.450
887.94	142.850
888.24	143.500
888.54	141.350
888.85	141.950
889.15	142.650
889.45	143.250
889.76	142.500
890.06	142.250
890.36	144.050
890.67	145.950
890.97	142.700
891.27	141.750
891.58	142.250
891.88	141.450
892.18	141.450
892.48	143.200
892.79	142.950
893.09	143.000
893.39	141.300
893.70	142.650
894.00	141.950
894.30	141.150
894.60	142.600
894.91	142.450
895.21	141.600
895.51	143.150
895.81	142.550
896.11	141.650
896.42	142.100
896.72	142.350
897.02	143.250
897.32	142.200
897.62	141.700
897.93	140.500
898.23	141.150
898.53	142.550
898.83	143.650
899.13	142.900
899.43	142.050
899.74	140.900
900.04	141.400
900.34	141.700
900.64	141.750
900.94	141.750
901.24	141.400
901.54	142.700
901.84	142.250
902.15	142.300
902.45	142.250
902.75	142.050
903.05	142.200
903.35	142.800
903.65	142.850
903.95	142.250
904.25	141.100
904.55	141.450
904.85	142.000
905.15	142.250
905.45	143.000
905.75	140.950
906.05	141.500
906.35	142.300
906.65	141.650
906.95	142.900
907.25	142.050
907.55	142.450
907.85	143.950
908.15	142.750
908.45	143.250
908.75	142.150
909.05	141.750
909.35	141.700
909.65	141.600
909.95	141.850
910.25	140.600
910.55	142.800
910.85	143.700
911.15	142.650
911.45	142.100
911.75	142.500
912.05	142.650
912.34	143.550
912.64	142.600
912.94	141.850
913.24	141.600
913.54	142.700
913.84	143.050
914.14	141.850
914.44	142.050
914.73	142.200
915.03	142.050
915.33	141.800
915.63	140.850
915.93	141.550
916.23	142.000
916.52	141.600
916.82	142.150
917.12	142.400
917.42	141.750
917.72	141.450
918.01	142.800
918.31	143.050
918.61	143.250
918.91	142.850
919.21	143.350
919.50	143.500
919.80	141.150
920.10	140.900
920.40	144.250
920.69	140.700
920.99	143.000
921.29	141.200
921.58	141.450
921.88	140.850
922.18	142.250
922.48	142.500
922.77	142.150
923.07	141.450
923.37	142.500
923.66	141.900
923.96	140.500
924.26	141.900
924.55	141.800
924.85	142.650
925.15	141.100
925.44	142.150
925.74	140.650
926.04	142.800
926.33	141.700
926.63	142.600
926.92	141.950
927.22	143.900
927.52	142.150
927.81	142.050
928.11	142.200
928.40	142.250
928.70	141.800
929.00	142.050
929.29	142.050
929.59	141.800
929.88	141.650
930.18	142.150
930.47	142.550
930.77	141.550
931.06	142.100
931.36	140.650
931.65	142.750
931.95	141.600
932.24	141.900
932.54	142.850
932.83	141.750
933.13	141.300
933.42	141.350
933.72	141.050
934.01	142.000
934.31	141.650
934.60	141.950
934.90	140.700
935.19	141.600
935.49	142.150
935.78	142.850
936.07	141.950
936.37	142.950
936.66	142.000
936.96	141.750
937.25	141.800
937.54	143.400
937.84	140.900
938.13	141.900
938.43	141.750
938.72	141.950
939.01	141.750
939.31	143.250
939.60	141.650
939.89	141.650
940.19	142.450
940.48	142.900
940.77	142.500
941.07	142.550
941.36	142.750
941.65	142.550
941.95	143.550
942.24	141.850
942.53	142.050
942.82	141.900
943.12	142.350
943.41	141.850
943.70	141.850
944.00	140.900
944.29	141.850
944.58	142.100
944.87	141.950
945.17	141.650
945.46	141.100
945.75	141.650
946.04	142.600
946.33	142.950
946.63	142.250
946.92	142.350
947.21	141.750
947.50	142.750
947.79	141.700
948.09	141.450
948.38	142.950
948.67	142.350
948.96	141.250
949.25	142.350
949.54	141.100
949.83	140.600
950.13	142.000
950.42	141.450
950.71	141.250
951.00	141.850
951.29	141.350
951.58	141.300
951.87	143.500
952.16	142.300
952.45	140.500
952.75	142.500
953.04	143.450
953.33	143.200
953.62	141.350
953.91	141.850
954.20	143.450
954.49	141.950
954.78	141.150
955.07	141.600
955.36	143.400
955.65	142.400
955.94	143.200
956.23	143.450
956.52	141.700
956.81	142.650
957.10	142.150
957.39	142.100
957.68	142.900
957.97	141.000
958.26	142.350
958.55	142.550
958.84	142.400
959.13	142.850
959.42	144.950
959.71	142.500
960.00	142.900
960.28	141.200
960.57	141.300
960.86	142.900
961.15	142.350
961.44	142.450
961.73	142.300
962.02	143.300
962.31	143.050
962.60	143.050
962.88	141.350
963.17	142.700
963.46	142.200
963.75	141.050
964.04	142.800
964.33	141.900
964.61	141.400
964.90	140.000
965.19	142.150
965.48	141.400
965.77	142.500
966.05	143.100
966.34	141.300
966.63	142.550
966.92	142.200
967.21	142.550
967.49	142.050
967.78	143.000
968.07	142.400
968.36	143.100
968.64	142.700
968.93	141.700
969.22	141.000
969.51	140.500
969.79	140.500
970.08	142.350
970.37	143.250
970.65	142.550
970.94	141.400
971.23	140.800
971.51	140.950
971.80	140.900
972.09	143.000
972.37	141.850
972.66	142.300
972.95	143.100
973.23	141.700
973.52	141.850
973.81	140.950
974.09	141.550
974.38	142.050
974.66	141.950
974.95	141.750
975.24	141.350
975.52	143.050
975.81	142.250
976.09	141.700
976.38	141.750
976.66	143.350
976.95	141.950
977.24	141.650
977.52	142.200
977.81	141.750
978.09	141.400
978.38	141.600
978.66	141.400
978.95	142.800
979.23	142.300
979.52	141.700
979.80	141.550
980.09	142.050
980.37	143.100
980.66	141.600
980.94	140.850
981.23	143.650
981.51	142.050
981.80	141.050
982.08	141.000
982.36	143.550
982.65	142.550
982.93	142.000
983.22	141.700
983.50	142.800
983.78	142.350
984.07	142.600
984.35	142.300
984.64	142.050
984.92	142.050
985.20	141.150
985.49	142.650
985.77	142.350
986.05	141.850
986.34	142.500
986.62	140.600
986.91	142.450
987.19	141.850
987.47	143.000
987.75	141.850
988.04	140.650
988.32	142.450
988.60	141.950
988.89	142.600
989.17	141.900
989.45	141.500
989.74	141.400
990.02	141.400
990.30	143.000
990.58	141.400
990.87	141.850
991.15	140.700
991.43	141.450
991.71	142.700
991.99	141.800
992.28	142.600
992.56	143.650
992.84	141.900
993.12	141.500
993.40	142.000
993.69	142.700
993.97	141.850
994.25	144.100
994.53	141.900
994.81	142.750
995.09	142.150
995.38	141.000
995.66	141.900
995.94	142.750
996.22	142.650
996.50	141.250
996.78	142.000
997.06	141.450
997.34	142.600
997.63	142.500
997.91	142.200
998.19	143.800
998.47	140.700
998.75	141.650
999.03	141.550
999.31	141.950
999.59	143.950
999.87	141.000
1000.15	141.600
1000.43	142.550
1000.71	141.750
1000.99	143.000
1001.27	142.700
1001.55	140.950
1001.83	142.300
1002.11	141.050
1002.39	141.950
1002.67	141.700
1002.95	142.850
1003.23	142.400
1003.51	141.600
1003.79	143.450
1004.07	141.300
1004.35	142.200
1004.63	141.250
1004.91	141.550
1005.19	141.850
1005.46	143.300
1005.74	142.550
1006.02	142.250
1006.30	141.900
1006.58	141.750
1006.86	142.000
1007.14	141.900
1007.42	142.900
1007.70	142.550
1007.97	143.850
1008.25	140.600
1008.53	140.650
1008.81	140.600
1009.09	140.450
1009.37	140.950
1009.64	141.400
1009.92	141.150
1010.20	140.550
1010.48	142.250
1010.76	142.050
1011.03	142.550
1011.31	143.800
1011.59	142.350
1011.87	141.950
1012.14	142.000
1012.42	142.550
1012.70	141.850
1012.98	141.700
1013.25	141.450
1013.53	142.500
1013.81	141.100
1014.08	141.150
1014.36	140.250
1014.64	141.250
1014.92	141.300
1015.19	141.850
1015.47	141.000
1015.75	142.900
1016.02	141.550
1016.30	141.750
1016.58	145.150
1016.85	140.900
>>>>>End Spectral Data<<<<<
