OOIBase32 Version 2.0.6.5 Data File
++++++++++++++++++++++++++++++++++++
Date: 04-16-2021, 17:10:22
User: Valued Ocean Optics Customer
Spectrometer Serial Number: USB2E5007
Spectrometer Channel: Master
Integration Time (msec): 45
Spectra Averaged: 20
Boxcar Smoothing: 0
Correct for Electrical Dark: Disabled
Time Normalized: Disabled
Dual-beam Reference: Disabled
Reference Channel: Master
Temperature: Not acquired
Spectrometer Type: S2000
ADC Type: USB2000
Number of Pixels in File: 2048
Graph Title: 
>>>>>Begin Spectral Data<<<<<
340.15	0.000
340.52	129.700
340.90	131.600
341.27	132.800
341.64	134.700
342.01	137.600
342.38	138.250
342.76	139.500
343.13	139.600
343.50	140.500
343.87	139.800
344.24	140.900
344.61	141.000
344.98	139.750
345.36	140.050
345.73	142.250
346.10	140.100
346.47	140.900
346.84	140.000
347.21	139.700
347.58	140.900
347.96	142.300
348.33	140.000
348.70	139.350
349.07	141.250
349.44	140.700
349.81	143.500
350.18	141.150
350.55	142.500
350.92	142.600
351.30	142.800
351.67	142.150
352.04	141.700
352.41	142.850
352.78	144.000
353.15	143.450
353.52	143.300
353.89	144.350
354.26	143.550
354.63	142.000
355.00	143.950
355.37	144.150
355.75	142.250
356.12	142.700
356.49	142.650
356.86	143.950
357.23	144.000
357.60	143.000
357.97	143.400
358.34	143.700
358.71	144.550
359.08	144.150
359.45	143.200
359.82	144.800
360.19	145.150
360.56	143.800
360.93	143.700
361.30	143.750
361.67	143.250
362.04	144.850
362.41	144.000
362.78	144.150
363.15	145.700
363.52	145.550
363.89	144.850
364.26	144.850
364.63	145.000
365.00	143.950
365.37	145.300
365.74	144.550
366.11	143.700
366.48	144.900
366.85	144.800
367.22	144.650
367.59	146.100
367.96	145.150
368.33	145.350
368.70	145.000
369.07	145.000
369.44	145.900
369.81	146.250
370.18	145.500
370.55	145.350
370.92	146.300
371.29	145.100
371.66	146.850
372.03	145.700
372.40	145.400
372.77	146.150
373.13	146.550
373.50	145.950
373.87	145.750
374.24	147.000
374.61	147.400
374.98	146.350
375.35	146.750
375.72	145.950
376.09	146.550
376.46	145.800
376.83	146.600
377.20	145.650
377.56	147.150
377.93	145.750
378.30	146.950
378.67	147.100
379.04	146.650
379.41	146.600
379.78	147.300
380.15	148.600
380.51	146.550
380.88	147.700
381.25	146.500
381.62	147.400
381.99	146.900
382.36	146.400
382.73	146.450
383.09	147.200
383.46	146.900
383.83	146.500
384.20	147.150
384.57	147.950
384.94	147.400
385.31	146.500
385.67	148.050
386.04	147.050
386.41	148.100
386.78	147.900
387.15	148.700
387.51	147.500
387.88	147.750
388.25	147.450
388.62	148.850
388.99	147.850
389.36	147.900
389.72	147.450
390.09	150.150
390.46	149.000
390.83	148.850
391.19	148.300
391.56	146.900
391.93	148.500
392.30	149.400
392.67	148.350
393.03	148.550
393.40	148.550
393.77	148.150
394.14	148.900
394.50	147.250
394.87	148.200
395.24	149.350
395.61	148.700
395.97	149.150
396.34	149.150
396.71	148.100
397.08	150.350
397.44	149.050
397.81	148.950
398.18	149.050
398.55	149.600
398.91	149.550
399.28	148.900
399.65	150.550
400.01	150.800
400.38	148.650
400.75	149.150
401.12	148.750
401.48	148.300
401.85	149.650
402.22	150.100
402.58	150.200
402.95	151.900
403.32	150.700
403.68	149.800
404.05	149.450
404.42	149.000
404.78	150.850
405.15	150.850
405.52	150.250
405.88	150.450
406.25	149.800
406.62	148.850
406.98	150.250
407.35	150.200
407.72	150.300
408.08	151.200
408.45	152.500
408.82	152.850
409.18	151.550
409.55	151.000
409.91	152.950
410.28	152.700
410.65	151.900
411.01	152.600
411.38	151.400
411.75	152.550
412.11	153.550
412.48	154.150
412.84	155.300
413.21	154.750
413.58	155.700
413.94	156.650
414.31	155.400
414.67	157.500
415.04	155.500
415.41	157.300
415.77	159.750
416.14	160.800
416.50	161.050
416.87	160.750
417.23	162.400
417.60	163.600
417.97	162.950
418.33	164.100
418.70	165.000
419.06	167.850
419.43	167.900
419.79	171.200
420.16	170.800
420.52	175.400
420.89	176.450
421.25	178.650
421.62	182.450
421.98	181.400
422.35	183.750
422.72	182.900
423.08	189.250
423.45	194.250
423.81	194.000
424.18	198.900
424.54	200.250
424.91	203.650
425.27	209.850
425.64	213.850
426.00	218.700
426.37	224.250
426.73	225.550
427.09	235.400
427.46	241.950
427.82	245.700
428.19	249.850
428.55	257.400
428.92	264.100
429.28	278.900
429.65	285.800
430.01	301.750
430.38	303.350
430.74	307.800
431.11	311.850
431.47	344.200
431.83	342.150
432.20	367.050
432.56	371.700
432.93	394.900
433.29	397.800
433.66	407.200
434.02	443.850
434.38	431.400
434.75	470.300
435.11	470.750
435.48	497.350
435.84	504.450
436.20	545.600
436.57	547.100
436.93	575.900
437.30	611.750
437.66	606.850
438.02	676.800
438.39	696.100
438.75	710.200
439.12	779.750
439.48	799.100
439.84	813.250
440.21	852.000
440.57	876.500
440.93	1002.700
441.30	1013.850
441.66	1029.450
442.02	1100.750
442.39	1106.900
442.75	1163.000
443.11	1184.850
443.48	1253.200
443.84	1309.350
444.20	1311.000
444.57	1483.200
444.93	1518.350
445.29	1635.400
445.66	1623.900
446.02	1705.950
446.38	1859.550
446.75	1892.150
447.11	1975.700
447.47	1928.800
447.84	2017.800
448.20	2164.850
448.56	2263.050
448.92	2327.400
449.29	2330.100
449.65	2360.600
450.01	2441.900
450.37	2403.400
450.74	2504.300
451.10	2587.350
451.46	2665.650
451.83	2533.300
452.19	2582.600
452.55	2480.700
452.91	2623.950
453.28	2655.950
453.64	2685.550
454.00	2650.400
454.36	2417.850
454.72	2590.700
455.09	2484.750
455.45	2500.500
455.81	2432.950
456.17	2351.650
456.54	2323.000
456.90	2293.450
457.26	2135.450
457.62	2144.650
457.98	2122.350
458.35	2094.250
458.71	1957.500
459.07	1925.600
459.43	1810.650
459.79	1795.950
460.16	1677.600
460.52	1631.550
460.88	1615.050
461.24	1613.100
461.60	1567.650
461.96	1565.450
462.33	1483.200
462.69	1423.800
463.05	1369.000
463.41	1374.950
463.77	1331.150
464.13	1262.150
464.49	1287.700
464.86	1237.500
465.22	1209.350
465.58	1186.450
465.94	1193.500
466.30	1138.950
466.66	1160.350
467.02	1142.050
467.38	1094.850
467.75	1071.850
468.11	1039.450
468.47	1023.000
468.83	1017.200
469.19	1003.000
469.55	989.850
469.91	946.150
470.27	888.400
470.63	906.300
470.99	894.350
471.35	848.800
471.72	852.250
472.08	838.500
472.44	806.500
472.80	774.550
473.16	777.200
473.52	740.100
473.88	722.800
474.24	709.600
474.60	693.350
474.96	680.800
475.32	658.600
475.68	639.950
476.04	629.850
476.40	614.150
476.76	601.700
477.12	583.700
477.48	576.750
477.84	567.850
478.20	555.500
478.56	538.150
478.92	527.550
479.28	517.700
479.64	506.600
480.00	502.150
480.36	496.950
480.72	481.250
481.08	472.800
481.44	465.150
481.80	456.800
482.16	446.750
482.52	443.750
482.88	433.550
483.24	431.900
483.60	427.050
483.96	416.750
484.32	408.950
484.68	401.400
485.04	398.400
485.40	391.350
485.76	383.150
486.12	377.500
486.48	372.500
486.83	363.950
487.19	356.750
487.55	350.800
487.91	348.150
488.27	338.850
488.63	333.150
488.99	325.900
489.35	322.750
489.71	316.100
490.07	307.250
490.43	301.650
490.78	298.150
491.14	293.050
491.50	288.200
491.86	282.100
492.22	275.700
492.58	271.550
492.94	266.500
493.30	262.450
493.65	257.150
494.01	255.300
494.37	251.600
494.73	245.550
495.09	243.750
495.45	239.550
495.80	237.950
496.16	232.700
496.52	231.300
496.88	225.550
497.24	225.150
497.60	222.300
497.95	220.300
498.31	215.500
498.67	213.750
499.03	213.900
499.39	209.400
499.74	208.750
500.10	206.350
500.46	203.750
500.82	202.350
501.18	201.900
501.53	198.150
501.89	197.450
502.25	197.000
502.61	192.850
502.96	193.050
503.32	190.100
503.68	192.050
504.04	189.050
504.40	187.650
504.75	185.400
505.11	185.700
505.47	183.550
505.82	182.800
506.18	182.400
506.54	180.700
506.90	180.950
507.25	178.900
507.61	177.100
507.97	176.850
508.33	174.500
508.68	175.600
509.04	173.850
509.40	174.300
509.75	170.500
510.11	171.700
510.47	171.600
510.82	170.300
511.18	168.650
511.54	169.150
511.89	168.150
512.25	166.550
512.61	167.650
512.96	166.800
513.32	164.000
513.68	165.650
514.03	164.850
514.39	164.150
514.75	163.000
515.10	165.150
515.46	162.800
515.82	162.150
516.17	161.300
516.53	161.950
516.89	161.250
517.24	161.150
517.60	159.650
517.95	159.900
518.31	158.450
518.67	160.000
519.02	160.450
519.38	161.300
519.73	158.450
520.09	158.100
520.45	158.850
520.80	157.500
521.16	157.300
521.51	156.600
521.87	156.300
522.22	156.300
522.58	157.550
522.94	156.700
523.29	156.900
523.65	155.200
524.00	157.200
524.36	155.900
524.71	154.950
525.07	155.050
525.42	154.750
525.78	154.350
526.14	153.950
526.49	155.600
526.85	154.550
527.20	155.100
527.56	154.300
527.91	154.650
528.27	154.000
528.62	153.600
528.98	153.300
529.33	153.000
529.69	153.000
530.04	152.450
530.40	152.500
530.75	152.450
531.11	152.900
531.46	153.000
531.81	151.850
532.17	152.800
532.52	151.850
532.88	151.650
533.23	151.800
533.59	153.850
533.94	151.100
534.30	150.100
534.65	151.450
535.01	151.800
535.36	152.650
535.71	152.800
536.07	151.300
536.42	153.850
536.78	152.000
537.13	151.900
537.48	152.700
537.84	154.100
538.19	153.150
538.55	152.550
538.90	155.950
539.25	157.800
539.61	159.250
539.96	159.850
540.32	159.550
540.67	157.650
541.02	157.650
541.38	156.050
541.73	157.050
542.08	155.500
542.44	155.950
542.79	155.850
543.15	155.450
543.50	158.750
543.85	161.400
544.21	162.450
544.56	161.000
544.91	158.700
545.27	156.500
545.62	154.200
545.97	154.300
546.32	153.600
546.68	153.350
547.03	151.850
547.38	152.350
547.74	152.600
548.09	151.150
548.44	151.500
548.80	151.050
549.15	151.900
549.50	148.200
549.85	151.500
550.21	150.200
550.56	150.250
550.91	150.000
551.26	150.200
551.62	150.100
551.97	148.900
552.32	149.450
552.67	148.850
553.03	148.300
553.38	148.700
553.73	149.000
554.08	148.000
554.44	148.400
554.79	149.050
555.14	148.550
555.49	148.350
555.85	148.550
556.20	147.350
556.55	148.100
556.90	146.300
557.25	147.900
557.61	147.850
557.96	147.900
558.31	147.250
558.66	146.800
559.01	148.500
559.36	148.850
559.72	148.350
560.07	148.300
560.42	147.500
560.77	147.650
561.12	147.800
561.47	147.600
561.83	146.950
562.18	147.600
562.53	146.700
562.88	147.400
563.23	148.350
563.58	147.150
563.93	147.100
564.28	149.250
564.64	147.800
564.99	147.150
565.34	147.350
565.69	148.950
566.04	147.750
566.39	147.050
566.74	146.750
567.09	147.050
567.44	148.900
567.79	146.500
568.14	146.900
568.50	147.200
568.85	146.700
569.20	146.450
569.55	145.950
569.90	146.150
570.25	146.800
570.60	146.900
570.95	146.350
571.30	146.150
571.65	147.500
572.00	147.200
572.35	148.000
572.70	146.450
573.05	146.050
573.40	146.650
573.75	146.900
574.10	146.850
574.45	148.000
574.80	147.050
575.15	147.100
575.50	148.150
575.85	147.050
576.20	146.700
576.55	146.400
576.90	147.650
577.25	148.150
577.60	147.500
577.95	148.100
578.30	147.750
578.65	147.950
579.00	146.550
579.35	147.750
579.70	146.900
580.05	146.150
580.40	147.800
580.74	148.550
581.09	147.700
581.44	147.400
581.79	148.500
582.14	146.950
582.49	149.200
582.84	147.000
583.19	146.600
583.54	147.800
583.89	146.850
584.24	146.950
584.58	147.100
584.93	147.300
585.28	149.350
585.63	146.300
585.98	147.900
586.33	147.000
586.68	147.000
587.03	148.850
587.37	146.600
587.72	146.750
588.07	147.100
588.42	146.550
588.77	146.150
589.12	147.850
589.46	147.150
589.81	147.250
590.16	146.750
590.51	146.150
590.86	145.150
591.21	146.450
591.55	147.100
591.90	146.750
592.25	146.050
592.60	145.550
592.95	145.400
593.29	146.400
593.64	146.250
593.99	146.900
594.34	146.100
594.68	146.250
595.03	146.300
595.38	145.100
595.73	145.000
596.07	144.600
596.42	145.050
596.77	146.100
597.12	147.050
597.46	145.500
597.81	145.750
598.16	144.850
598.51	147.550
598.85	145.600
599.20	144.700
599.55	146.350
599.90	145.000
600.24	145.250
600.59	145.400
600.94	144.700
601.28	145.500
601.63	145.000
601.98	144.650
602.32	144.750
602.67	145.350
603.02	145.600
603.36	146.650
603.71	146.100
604.06	145.500
604.40	145.550
604.75	145.500
605.10	145.250
605.44	146.400
605.79	144.950
606.14	145.350
606.48	145.000
606.83	145.650
607.17	144.750
607.52	145.300
607.87	146.400
608.21	148.350
608.56	148.650
608.90	152.700
609.25	154.650
609.60	156.200
609.94	156.250
610.29	153.800
610.63	150.600
610.98	151.300
611.33	150.250
611.67	149.800
612.02	148.400
612.36	147.750
612.71	147.500
613.05	147.550
613.40	146.800
613.74	146.250
614.09	145.850
614.44	146.300
614.78	145.250
615.13	144.750
615.47	145.600
615.82	145.600
616.16	144.600
616.51	145.950
616.85	145.650
617.20	145.300
617.54	146.500
617.89	144.550
618.23	144.950
618.58	146.700
618.92	144.900
619.27	145.550
619.61	145.750
619.96	144.950
620.30	146.200
620.64	145.350
620.99	148.000
621.33	145.950
621.68	147.100
622.02	146.600
622.37	145.650
622.71	144.750
623.06	145.700
623.40	145.150
623.74	145.650
624.09	146.450
624.43	145.250
624.78	145.400
625.12	144.850
625.46	145.100
625.81	144.100
626.15	145.350
626.50	145.850
626.84	143.850
627.18	146.650
627.53	145.400
627.87	144.500
628.21	145.200
628.56	145.700
628.90	145.000
629.25	144.650
629.59	145.750
629.93	145.850
630.28	146.000
630.62	145.250
630.96	144.600
631.31	144.250
631.65	145.150
631.99	144.800
632.34	143.850
632.68	144.100
633.02	143.300
633.36	144.450
633.71	144.350
634.05	145.050
634.39	144.250
634.74	143.950
635.08	143.350
635.42	142.650
635.76	146.100
636.11	142.900
636.45	145.100
636.79	144.950
637.14	143.500
637.48	143.650
637.82	143.400
638.16	143.900
638.50	144.300
638.85	143.650
639.19	145.050
639.53	145.700
639.87	143.800
640.22	143.700
640.56	142.750
640.90	144.300
641.24	144.900
641.58	143.150
641.93	144.200
642.27	145.050
642.61	144.550
642.95	143.650
643.29	143.200
643.64	144.000
643.98	144.000
644.32	143.550
644.66	143.350
645.00	143.700
645.34	144.000
645.68	143.900
646.03	144.950
646.37	144.050
646.71	144.250
647.05	143.400
647.39	144.250
647.73	144.500
648.07	144.150
648.42	145.650
648.76	145.400
649.10	145.200
649.44	145.650
649.78	143.450
650.12	144.850
650.46	143.750
650.80	143.900
651.14	145.600
651.48	143.950
651.82	144.550
652.16	145.300
652.51	143.950
652.85	142.750
653.19	143.950
653.53	145.150
653.87	143.900
654.21	143.650
654.55	143.750
654.89	144.250
655.23	142.700
655.57	144.100
655.91	143.900
656.25	143.200
656.59	144.600
656.93	144.050
657.27	143.250
657.61	146.500
657.95	143.600
658.29	143.450
658.63	142.900
658.97	144.900
659.31	145.550
659.65	143.300
659.99	144.500
660.33	143.800
660.67	143.300
661.01	144.850
661.35	143.800
661.68	144.250
662.02	142.900
662.36	142.300
662.70	144.200
663.04	144.850
663.38	144.900
663.72	144.100
664.06	144.200
664.40	143.550
664.74	144.050
665.08	144.200
665.42	144.650
665.75	142.750
666.09	142.600
666.43	148.000
666.77	144.100
667.11	143.250
667.45	142.950
667.79	144.450
668.12	143.400
668.46	143.200
668.80	143.800
669.14	142.600
669.48	143.850
669.82	144.300
670.16	145.000
670.49	142.650
670.83	143.600
671.17	143.450
671.51	143.350
671.85	144.100
672.18	143.100
672.52	143.700
672.86	144.550
673.20	143.650
673.54	144.400
673.87	144.350
674.21	144.200
674.55	143.450
674.89	144.100
675.22	144.350
675.56	143.700
675.90	143.450
676.24	142.950
676.57	142.900
676.91	144.850
677.25	142.400
677.59	143.450
677.92	143.650
678.26	142.500
678.60	142.650
678.93	143.400
679.27	143.200
679.61	142.650
679.95	142.550
680.28	143.900
680.62	143.400
680.96	143.950
681.29	143.150
681.63	144.200
681.97	141.900
682.30	142.800
682.64	143.050
682.98	143.400
683.31	143.100
683.65	143.850
683.99	143.200
684.32	142.700
684.66	143.200
685.00	143.400
685.33	143.300
685.67	143.600
686.00	142.650
686.34	143.100
686.68	145.850
687.01	143.300
687.35	142.750
687.68	144.400
688.02	142.800
688.36	144.150
688.69	143.100
689.03	143.600
689.36	144.500
689.70	143.400
690.03	143.650
690.37	143.550
690.71	142.550
691.04	142.850
691.38	142.400
691.71	143.000
692.05	142.850
692.38	142.800
692.72	143.050
693.05	144.000
693.39	143.050
693.72	142.800
694.06	143.900
694.39	141.250
694.73	142.350
695.06	141.900
695.40	142.650
695.73	142.850
696.07	145.300
696.40	143.700
696.74	143.800
697.07	144.700
697.41	143.500
697.74	144.600
698.08	143.550
698.41	143.450
698.74	144.050
699.08	143.900
699.41	144.400
699.75	143.900
700.08	143.500
700.42	142.550
700.75	142.100
701.08	142.500
701.42	142.600
701.75	143.950
702.09	144.550
702.42	145.600
702.75	144.200
703.09	142.250
703.42	143.600
703.75	143.350
704.09	142.450
704.42	143.250
704.76	142.750
705.09	143.150
705.42	142.600
705.76	144.350
706.09	142.400
706.42	144.500
706.76	143.300
707.09	144.350
707.42	143.750
707.76	144.200
708.09	142.200
708.42	143.000
708.75	143.900
709.09	142.750
709.42	142.750
709.75	143.550
710.09	143.600
710.42	143.350
710.75	143.100
711.08	142.900
711.42	143.600
711.75	144.100
712.08	143.900
712.41	142.150
712.75	144.150
713.08	143.550
713.41	143.600
713.74	144.000
714.08	142.900
714.41	142.450
714.74	142.500
715.07	144.250
715.41	142.750
715.74	143.350
716.07	142.350
716.40	143.150
716.73	143.150
717.06	142.050
717.40	142.200
717.73	142.400
718.06	144.000
718.39	144.000
718.72	144.100
719.05	143.850
719.39	143.000
719.72	143.200
720.05	142.800
720.38	143.300
720.71	143.200
721.04	142.150
721.37	143.200
721.71	141.700
722.04	142.050
722.37	143.200
722.70	143.150
723.03	143.200
723.36	142.250
723.69	142.900
724.02	141.900
724.35	142.050
724.68	143.750
725.01	141.550
725.35	143.250
725.68	142.700
726.01	143.850
726.34	144.450
726.67	143.200
727.00	142.800
727.33	141.550
727.66	143.200
727.99	142.450
728.32	142.950
728.65	143.650
728.98	143.750
729.31	143.100
729.64	143.000
729.97	142.250
730.30	143.200
730.63	142.700
730.96	142.250
731.29	142.200
731.62	142.500
731.95	143.900
732.28	144.000
732.61	143.650
732.94	143.200
733.27	143.500
733.60	143.100
733.93	141.450
734.25	142.550
734.58	142.400
734.91	141.800
735.24	142.600
735.57	142.800
735.90	143.850
736.23	143.750
736.56	143.600
736.89	142.750
737.22	143.600
737.55	143.700
737.87	143.800
738.20	143.350
738.53	142.250
738.86	142.550
739.19	142.050
739.52	143.750
739.85	142.750
740.17	143.050
740.50	142.600
740.83	143.050
741.16	141.950
741.49	144.500
741.82	142.600
742.14	143.200
742.47	143.650
742.80	142.550
743.13	141.800
743.46	143.900
743.78	143.100
744.11	142.300
744.44	143.600
744.77	143.700
745.10	142.300
745.42	142.650
745.75	142.750
746.08	143.550
746.41	142.750
746.73	142.850
747.06	143.300
747.39	142.950
747.72	143.350
748.04	143.350
748.37	142.650
748.70	142.000
749.02	143.400
749.35	143.650
749.68	142.800
750.01	142.950
750.33	144.850
750.66	143.600
750.99	143.800
751.31	142.800
751.64	141.200
751.97	142.550
752.29	143.800
752.62	142.450
752.95	143.000
753.27	142.650
753.60	143.450
753.93	143.050
754.25	143.300
754.58	142.150
754.91	143.550
755.23	144.000
755.56	147.600
755.88	144.450
756.21	143.900
756.54	142.300
756.86	142.500
757.19	142.400
757.51	143.000
757.84	142.000
758.17	143.000
758.49	142.700
758.82	141.950
759.14	142.400
759.47	142.500
759.79	143.650
760.12	142.900
760.44	143.000
760.77	142.650
761.09	142.900
761.42	142.750
761.75	144.700
762.07	143.400
762.40	142.750
762.72	143.350
763.05	143.100
763.37	143.950
763.70	141.650
764.02	144.150
764.35	141.500
764.67	142.000
764.99	144.100
765.32	142.000
765.64	144.250
765.97	143.050
766.29	143.000
766.62	142.850
766.94	145.100
767.27	143.250
767.59	142.200
767.91	142.250
768.24	144.150
768.56	143.150
768.89	143.400
769.21	142.850
769.54	143.500
769.86	142.550
770.18	142.850
770.51	141.850
770.83	142.100
771.15	142.250
771.48	142.500
771.80	143.050
772.13	143.300
772.45	142.650
772.77	142.700
773.10	141.500
773.42	142.600
773.74	142.100
774.07	142.200
774.39	142.950
774.71	142.500
775.04	143.650
775.36	142.550
775.68	142.100
776.01	141.650
776.33	142.950
776.65	143.650
776.97	141.750
777.30	143.250
777.62	141.950
777.94	143.600
778.26	142.050
778.59	142.100
778.91	141.700
779.23	142.400
779.55	142.100
779.88	142.700
780.20	142.600
780.52	141.550
780.84	142.950
781.17	142.200
781.49	142.800
781.81	143.200
782.13	142.200
782.45	143.000
782.78	142.550
783.10	143.050
783.42	143.350
783.74	142.250
784.06	141.950
784.39	141.700
784.71	142.900
785.03	143.100
785.35	143.800
785.67	143.850
785.99	143.100
786.31	142.800
786.64	142.550
786.96	142.300
787.28	142.750
787.60	142.000
787.92	143.300
788.24	143.000
788.56	141.600
788.88	143.250
789.20	146.500
789.53	143.000
789.85	142.350
790.17	141.950
790.49	141.150
790.81	141.450
791.13	142.800
791.45	144.450
791.77	143.400
792.09	143.200
792.41	142.750
792.73	141.300
793.05	141.050
793.37	142.900
793.69	141.900
794.01	142.250
794.33	143.500
794.65	142.400
794.97	141.850
795.29	142.350
795.61	141.800
795.93	140.750
796.25	141.350
796.57	142.950
796.89	143.350
797.21	144.650
797.53	142.400
797.85	142.100
798.17	141.400
798.49	142.600
798.81	143.000
799.13	143.100
799.45	144.800
799.77	141.850
800.08	143.050
800.40	142.500
800.72	141.900
801.04	142.350
801.36	142.050
801.68	141.150
802.00	141.150
802.32	142.200
802.64	142.900
802.95	142.400
803.27	142.450
803.59	143.250
803.91	142.050
804.23	142.950
804.55	141.950
804.87	141.100
805.18	141.950
805.50	142.350
805.82	142.250
806.14	142.450
806.46	141.650
806.77	143.350
807.09	143.350
807.41	142.800
807.73	141.400
808.05	143.100
808.36	142.000
808.68	142.350
809.00	142.250
809.32	142.600
809.63	142.600
809.95	142.800
810.27	143.350
810.59	141.800
810.90	141.350
811.22	141.400
811.54	141.250
811.86	143.200
812.17	144.100
812.49	142.500
812.81	142.000
813.12	141.600
813.44	142.850
813.76	141.800
814.08	143.150
814.39	143.250
814.71	141.200
815.03	142.400
815.34	142.200
815.66	143.000
815.98	141.750
816.29	142.150
816.61	142.100
816.92	140.900
817.24	141.400
817.56	142.750
817.87	141.750
818.19	142.600
818.51	142.750
818.82	143.000
819.14	142.650
819.45	142.450
819.77	142.000
820.09	143.050
820.40	141.800
820.72	140.850
821.03	141.200
821.35	141.400
821.66	142.700
821.98	144.000
822.29	142.750
822.61	142.450
822.93	141.700
823.24	142.400
823.56	143.000
823.87	142.200
824.19	141.550
824.50	142.150
824.82	142.150
825.13	142.750
825.45	143.250
825.76	142.650
826.08	142.100
826.39	142.250
826.71	141.300
827.02	142.450
827.33	143.000
827.65	141.550
827.96	141.600
828.28	141.750
828.59	142.350
828.91	141.150
829.22	141.800
829.54	141.550
829.85	142.150
830.16	142.400
830.48	142.750
830.79	142.500
831.11	141.100
831.42	140.550
831.73	142.900
832.05	142.700
832.36	141.800
832.67	142.700
832.99	141.950
833.30	142.100
833.62	141.200
833.93	142.000
834.24	143.100
834.56	141.900
834.87	142.400
835.18	142.800
835.50	142.250
835.81	141.000
836.12	142.050
836.43	142.050
836.75	140.600
837.06	141.650
837.37	141.250
837.69	141.550
838.00	142.400
838.31	141.150
838.62	141.800
838.94	141.850
839.25	142.300
839.56	142.550
839.87	142.300
840.19	143.300
840.50	143.600
840.81	142.200
841.12	141.800
841.44	141.950
841.75	142.300
842.06	142.100
842.37	140.550
842.68	140.900
843.00	141.500
843.31	141.600
843.62	142.800
843.93	141.750
844.24	142.600
844.55	141.400
844.87	141.550
845.18	143.050
845.49	141.300
845.80	143.100
846.11	142.250
846.42	142.850
846.73	142.200
847.05	141.700
847.36	141.500
847.67	141.350
847.98	140.850
848.29	141.150
848.60	141.850
848.91	141.950
849.22	142.250
849.53	141.700
849.84	141.500
850.15	141.300
850.46	141.500
850.78	140.400
851.09	141.600
851.40	142.600
851.71	141.850
852.02	141.550
852.33	141.550
852.64	143.200
852.95	141.000
853.26	141.450
853.57	141.550
853.88	142.350
854.19	142.800
854.50	142.600
854.81	142.550
855.12	142.250
855.43	141.900
855.74	142.100
856.05	141.650
856.35	142.450
856.66	140.750
856.97	140.950
857.28	142.500
857.59	142.850
857.90	140.700
858.21	142.250
858.52	142.000
858.83	140.850
859.14	141.600
859.45	142.350
859.76	142.450
860.06	142.500
860.37	141.750
860.68	142.100
860.99	141.700
861.30	141.700
861.61	140.850
861.92	141.900
862.23	141.850
862.53	143.250
862.84	142.500
863.15	142.150
863.46	143.200
863.77	142.150
864.08	142.100
864.38	141.700
864.69	141.850
865.00	142.550
865.31	142.050
865.61	142.000
865.92	144.500
866.23	142.350
866.54	141.650
866.85	141.550
867.15	142.250
867.46	142.100
867.77	143.450
868.08	141.400
868.38	142.150
868.69	140.200
869.00	143.800
869.30	141.500
869.61	143.050
869.92	144.300
870.23	142.300
870.53	141.350
870.84	140.250
871.15	141.600
871.45	142.200
871.76	142.700
872.07	142.800
872.37	142.350
872.68	140.850
872.99	140.900
873.29	142.650
873.60	142.450
873.91	142.600
874.21	140.550
874.52	141.400
874.82	142.450
875.13	143.550
875.44	142.200
875.74	142.500
876.05	143.700
876.35	142.100
876.66	142.750
876.97	141.800
877.27	142.150
877.58	142.150
877.88	142.300
878.19	142.350
878.49	142.500
878.80	141.750
879.10	142.850
879.41	142.000
879.72	141.700
880.02	142.200
880.33	143.350
880.63	141.650
880.94	142.500
881.24	141.700
881.55	141.700
881.85	141.700
882.16	142.600
882.46	142.550
882.76	142.950
883.07	143.000
883.37	143.350
883.68	143.600
883.98	143.800
884.29	143.000
884.59	143.150
884.90	143.650
885.20	141.500
885.50	141.800
885.81	141.500
886.11	142.650
886.42	143.000
886.72	142.550
887.02	143.450
887.33	140.750
887.63	140.850
887.94	142.500
888.24	142.900
888.54	140.900
888.85	140.550
889.15	142.750
889.45	142.950
889.76	143.250
890.06	142.300
890.36	143.550
890.67	145.500
890.97	141.900
891.27	141.850
891.58	141.500
891.88	141.800
892.18	141.900
892.48	144.100
892.79	142.350
893.09	142.650
893.39	141.100
893.70	143.550
894.00	142.550
894.30	143.500
894.60	144.250
894.91	142.500
895.21	141.800
895.51	143.050
895.81	142.300
896.11	142.200
896.42	142.000
896.72	142.500
897.02	142.600
897.32	142.800
897.62	142.150
897.93	141.450
898.23	142.150
898.53	141.250
898.83	142.850
899.13	142.850
899.43	141.250
899.74	140.900
900.04	141.900
900.34	141.050
900.64	141.150
900.94	143.200
901.24	141.650
901.54	142.550
901.84	142.850
902.15	141.550
902.45	141.700
902.75	141.800
903.05	143.100
903.35	142.750
903.65	142.550
903.95	142.450
904.25	141.750
904.55	143.150
904.85	141.650
905.15	142.800
905.45	143.000
905.75	141.900
906.05	142.150
906.35	141.250
906.65	142.550
906.95	143.300
907.25	142.600
907.55	142.500
907.85	142.900
908.15	141.950
908.45	142.150
908.75	139.950
909.05	141.900
909.35	141.650
909.65	141.650
909.95	142.800
910.25	142.250
910.55	142.850
910.85	145.000
911.15	142.800
911.45	142.000
911.75	143.450
912.05	142.400
912.34	143.700
912.64	142.000
912.94	141.400
913.24	140.700
913.54	142.400
913.84	144.300
914.14	142.250
914.44	141.800
914.73	142.500
915.03	142.150
915.33	142.600
915.63	141.850
915.93	141.600
916.23	140.700
916.52	141.700
916.82	142.500
917.12	144.200
917.42	141.900
917.72	142.600
918.01	143.150
918.31	142.500
918.61	142.550
918.91	142.100
919.21	143.150
919.50	143.600
919.80	141.800
920.10	142.600
920.40	143.950
920.69	141.300
920.99	142.800
921.29	142.700
921.58	142.550
921.88	141.600
922.18	141.750
922.48	141.950
922.77	141.300
923.07	141.700
923.37	143.350
923.66	141.850
923.96	141.150
924.26	142.950
924.55	141.900
924.85	142.550
925.15	141.350
925.44	141.450
925.74	141.700
926.04	143.350
926.33	142.900
926.63	143.100
926.92	141.950
927.22	143.350
927.52	142.400
927.81	143.600
928.11	141.600
928.40	142.350
928.70	142.800
929.00	141.850
929.29	141.250
929.59	143.100
929.88	143.100
930.18	141.450
930.47	141.700
930.77	141.600
931.06	141.700
931.36	142.100
931.65	141.600
931.95	141.650
932.24	141.450
932.54	143.050
932.83	141.350
933.13	141.800
933.42	141.400
933.72	141.050
934.01	142.050
934.31	141.800
934.60	142.050
934.90	141.400
935.19	141.300
935.49	142.350
935.78	141.850
936.07	142.100
936.37	142.250
936.66	142.850
936.96	142.400
937.25	142.850
937.54	142.850
937.84	141.700
938.13	140.700
938.43	140.950
938.72	142.150
939.01	142.600
939.31	142.300
939.60	142.000
939.89	142.150
940.19	142.150
940.48	142.050
940.77	143.150
941.07	142.150
941.36	143.200
941.65	143.000
941.95	142.550
942.24	141.750
942.53	141.900
942.82	142.500
943.12	142.250
943.41	142.000
943.70	141.200
944.00	141.250
944.29	142.400
944.58	141.750
944.87	141.800
945.17	140.550
945.46	141.150
945.75	142.350
946.04	142.150
946.33	142.550
946.63	142.700
946.92	141.900
947.21	143.550
947.50	142.500
947.79	141.600
948.09	141.100
948.38	141.050
948.67	141.850
948.96	141.250
949.25	141.700
949.54	141.250
949.83	142.100
950.13	142.750
950.42	141.300
950.71	142.100
951.00	141.100
951.29	141.950
951.58	141.350
951.87	143.500
952.16	141.850
952.45	141.750
952.75	143.100
953.04	143.000
953.33	142.450
953.62	142.050
953.91	143.400
954.20	142.850
954.49	142.100
954.78	142.750
955.07	142.000
955.36	142.850
955.65	142.900
955.94	141.800
956.23	141.050
956.52	142.150
956.81	142.550
957.10	140.850
957.39	141.700
957.68	142.400
957.97	141.750
958.26	143.050
958.55	142.900
958.84	141.600
959.13	141.400
959.42	145.150
959.71	141.100
960.00	141.850
960.28	142.100
960.57	141.900
960.86	142.300
961.15	141.750
961.44	143.150
961.73	142.600
962.02	142.000
962.31	142.450
962.60	142.150
962.88	142.200
963.17	143.050
963.46	141.300
963.75	141.600
964.04	140.700
964.33	142.700
964.61	141.850
964.90	142.150
965.19	142.400
965.48	141.950
965.77	141.700
966.05	141.600
966.34	141.750
966.63	142.050
966.92	142.100
967.21	142.600
967.49	141.750
967.78	143.200
968.07	143.200
968.36	142.950
968.64	143.100
968.93	142.300
969.22	141.850
969.51	141.300
969.79	141.850
970.08	142.750
970.37	142.200
970.65	143.850
970.94	141.900
971.23	141.050
971.51	141.700
971.80	140.150
972.09	140.800
972.37	141.700
972.66	141.850
972.95	142.700
973.23	142.100
973.52	141.600
973.81	141.400
974.09	141.850
974.38	142.200
974.66	142.450
974.95	142.200
975.24	141.700
975.52	142.100
975.81	141.100
976.09	141.750
976.38	141.950
976.66	143.150
976.95	141.950
977.24	141.650
977.52	141.350
977.81	142.650
978.09	142.300
978.38	142.050
978.66	142.100
978.95	142.350
979.23	141.700
979.52	141.750
979.80	141.050
980.09	141.350
980.37	143.900
980.66	141.200
980.94	142.050
981.23	143.100
981.51	140.900
981.80	141.200
982.08	141.150
982.36	143.000
982.65	142.650
982.93	141.700
983.22	141.750
983.50	141.900
983.78	141.250
984.07	142.200
984.35	141.700
984.64	142.200
984.92	142.000
985.20	141.650
985.49	142.400
985.77	143.350
986.05	142.250
986.34	141.700
986.62	141.800
986.91	143.300
987.19	142.900
987.47	142.150
987.75	143.450
988.04	140.950
988.32	142.950
988.60	141.900
988.89	142.200
989.17	140.550
989.45	142.500
989.74	141.650
990.02	142.150
990.30	142.300
990.58	142.150
990.87	142.950
991.15	141.400
991.43	142.750
991.71	142.350
991.99	141.450
992.28	142.000
992.56	143.400
992.84	141.550
993.12	141.500
993.40	140.800
993.69	142.450
993.97	141.950
994.25	144.000
994.53	141.750
994.81	143.400
995.09	142.700
995.38	142.200
995.66	142.400
995.94	143.150
996.22	142.300
996.50	142.600
996.78	141.350
997.06	141.200
997.34	141.200
997.63	141.550
997.91	142.800
998.19	142.500
998.47	141.400
998.75	141.050
999.03	142.600
999.31	141.300
999.59	143.100
999.87	141.150
1000.15	141.850
1000.43	141.600
1000.71	142.050
1000.99	141.750
1001.27	141.800
1001.55	142.550
1001.83	142.150
1002.11	141.700
1002.39	141.200
1002.67	142.550
1002.95	144.800
1003.23	141.750
1003.51	142.150
1003.79	142.300
1004.07	142.150
1004.35	143.300
1004.63	142.200
1004.91	142.600
1005.19	142.100
1005.46	142.100
1005.74	142.500
1006.02	143.400
1006.30	141.800
1006.58	141.400
1006.86	142.500
1007.14	142.100
1007.42	142.900
1007.70	141.850
1007.97	143.950
1008.25	141.050
1008.53	141.200
1008.81	140.950
1009.09	141.300
1009.37	141.000
1009.64	142.500
1009.92	141.450
1010.20	141.650
1010.48	142.100
1010.76	142.050
1011.03	141.950
1011.31	142.450
1011.59	141.500
1011.87	141.300
1012.14	141.650
1012.42	142.000
1012.70	141.100
1012.98	142.200
1013.25	141.800
1013.53	140.650
1013.81	142.250
1014.08	141.900
1014.36	141.800
1014.64	141.100
1014.92	141.150
1015.19	141.300
1015.47	142.650
1015.75	142.600
1016.02	141.800
1016.30	141.700
1016.58	144.050
1016.85	141.400
>>>>>End Spectral Data<<<<<
